Time  1 - default sample rate [s]	DD1_L [mV/V]	DD1_R [mV/V]
0	0.000	0.000	
0.01000	0.000	0.000	
0.02000	0.000	0.000	
0.03000	0.000	0.000	
0.04000	0.000	0.000	
0.05000	0.000	0.000	
0.06000	0.000	0.000	
0.07000	0.000	0.000	
0.08000	0.000	0.000	
0.09000	0.000	0.000	
0.1000	0.000	0.000	
0.1100	0.000	0.000	
0.1200	0.000	0.000	
0.1300	0.000	0.000	
0.1400	0.000	0.000	
0.1500	0.000	0.000	
0.1600	0.000	0.000	
0.1700	0.000	0.000	
0.1800	0.000	0.000	
0.1900	0.000	0.000	
0.2000	0.000	0.000	
0.2100	0.000	0.000	
0.2200	0.000	0.000	
0.2300	0.000	0.000	
0.2400	0.000	0.000	
0.2500	0.000	0.000	
0.2600	0.000	0.000	
0.2700	0.000	0.000	
0.2800	0.000	0.000	
0.2900	0.000	0.000	
0.3000	0.000	0.000	
0.3100	0.000	0.000	
0.3200	0.000	0.000	
0.3300	0.000	0.000	
0.3400	0.000	0.000	
0.3500	0.000	0.000	
0.3600	0.000	0.000	
0.3700	0.000	0.000	
0.3800	0.000	0.000	
0.3900	0.000	0.000	
0.4000	0.000	0.000	
0.4100	0.000	0.000	
0.4200	0.000	0.000	
0.4300	0.000	0.000	
0.4400	0.000	0.000	
0.4500	0.000	0.000	
0.4600	0.000	0.000	
0.4700	0.000	0.000	
0.4800	0.000	0.000	
0.4900	0.000	0.000	
0.5000	0.000	0.000	
0.5100	0.000	0.000	
0.5200	0.000	0.000	
0.5300	0.000	0.000	
0.5400	0.000	0.000	
0.5500	0.000	0.000	
0.5600	0.000	0.000	
0.5700	0.000	0.000	
0.5800	0.000	0.000	
0.5900	0.000	0.000	
0.6000	0.000	0.000	
0.6100	0.000	0.000	
0.6200	0.000	0.000	
0.6300	0.000	0.000	
0.6400	0.000	0.000	
0.6500	0.000	0.000	
0.6600	0.000	0.000	
0.6700	0.000	0.000	
0.6800	0.000	0.000	
0.6900	0.000	0.000	
0.7000	0.000	0.000	
0.7100	0.000	0.000	
0.7200	0.000	0.000	
0.7300	0.000	0.000	
0.7400	0.000	0.000	
0.7500	0.000	0.000	
0.7600	0.000	0.000	
0.7700	0.000	0.000	
0.7800	0.000	0.000	
0.7900	0.000	0.000	
0.8000	0.000	0.000	
0.8100	0.000	0.000	
0.8200	0.000	0.000	
0.8300	0.000	0.000	
0.8400	0.000	0.000	
0.8500	0.000	0.000	
0.8600	0.000	0.000	
0.8700	0.000	0.000	
0.8800	0.000	0.000	
0.8900	0.000	0.000	
0.9000	0.000	0.000	
0.9100	0.000	0.000	
0.9200	0.000	0.000	
0.9300	0.000	0.000	
0.9400	0.000	0.000	
0.9500	0.000	0.000	
0.9600	0.000	0.000	
0.9700	0.000	0.000	
0.9800	0.000	0.000	
0.9900	0.000	0.000	
1.000	0.000	0.000	
1.010	0.000	0.000	
1.020	0.000	0.000	
1.030	0.000	0.000	
1.040	0.000	0.000	
1.050	0.000	0.000	
1.060	0.000	0.000	
1.070	0.000	0.000	
1.080	0.000	0.000	
1.090	0.000	0.000	
1.100	0.000	0.000	
1.110	0.000	0.000	
1.120	0.000	0.000	
1.130	0.000	0.000	
1.140	0.000	0.000	
1.150	0.000	0.000	
1.160	0.000	0.000	
1.170	0.000	0.000	
1.180	0.000	0.000	
1.190	0.000	0.000	
1.200	0.000	0.000	
1.210	0.000	0.000	
1.220	0.000	0.000	
1.230	0.000	0.000	
1.240	0.000	0.000	
1.250	0.000	0.000	
1.260	0.000	0.000	
1.270	0.000	0.000	
1.280	0.000	0.000	
1.290	0.000	0.000	
1.300	0.000	0.000	
1.310	0.000	0.000	
1.320	0.000	0.000	
1.330	0.000	0.000	
1.340	0.000	0.000	
1.350	0.000	0.000	
1.360	0.000	0.00011	
1.370	0.000	0.00010	
1.380	0.000	0.000	
1.390	0.000	0.000	
1.400	0.000	0.000	
1.410	0.000	0.000	
1.420	0.000	0.000	
1.430	0.000	0.000	
1.440	0.000	0.000	
1.450	0.000	0.000	
1.460	0.000	0.000	
1.470	0.000	0.000	
1.480	0.000	0.000	
1.490	0.000	0.000	
1.500	0.000	0.00011	
1.510	0.000	0.00010	
1.520	0.000	0.000	
1.530	0.000	0.000	
1.540	0.000	0.000	
1.550	0.000	0.000	
1.560	0.000	0.000	
1.570	0.000	0.000	
1.580	0.000	0.000	
1.590	0.000	0.000	
1.600	0.000	0.000	
1.610	0.000	0.000	
1.620	0.000	0.000	
1.630	0.000	0.000	
1.640	0.000	0.000	
1.650	0.000	0.000	
1.660	0.000	0.000	
1.670	0.000	0.000	
1.680	0.000	0.000	
1.690	0.000	0.000	
1.700	0.000	0.000	
1.710	0.000	0.000	
1.720	0.000	0.000	
1.730	0.000	0.000	
1.740	0.000	0.000	
1.750	0.000	0.000	
1.760	0.000	0.000	
1.770	0.000	0.000	
1.780	0.000	0.000	
1.790	0.000	0.000	
1.800	0.000	0.000	
1.810	0.000	0.000	
1.820	0.000	0.000	
1.830	0.000	0.000	
1.840	0.000	0.000	
1.850	0.000	0.000	
1.860	0.000	0.000	
1.870	0.000	0.000	
1.880	0.000	0.000	
1.890	0.000	0.000	
1.900	0.000	0.000	
1.910	0.000	0.000	
1.920	0.000	0.000	
1.930	0.000	0.000	
1.940	0.000	0.000	
1.950	0.000	0.000	
1.960	0.000	0.000	
1.970	0.000	0.000	
1.980	0.000	0.000	
1.990	0.000	0.000	
2.000	0.000	0.000	
2.010	0.000	0.000	
2.020	0.000	0.000	
2.030	0.000	0.000	
2.040	0.000	0.000	
2.050	0.000	0.000	
2.060	0.000	0.000	
2.070	0.000	0.000	
2.080	0.000	0.000	
2.090	0.000	0.000	
2.100	0.000	0.000	
2.110	0.000	0.000	
2.120	0.000	0.000	
2.130	0.000	0.000	
2.140	0.000	0.000	
2.150	0.000	0.000	
2.160	0.000	0.000	
2.170	0.000	0.000	
2.180	0.000	0.000	
2.190	0.000	0.000	
2.200	0.000	0.000	
2.210	0.000	0.000	
2.220	0.000	0.000	
2.230	0.000	0.000	
2.240	0.000	0.000	
2.250	0.000	0.000	
2.260	0.000	0.000	
2.270	0.000	0.000	
2.280	0.000	0.000	
2.290	0.000	0.000	
2.300	0.000	0.000	
2.310	0.000	0.000	
2.320	0.000	0.000	
2.330	0.000	0.000	
2.340	0.000	0.000	
2.350	0.000	0.000	
2.360	0.000	0.000	
2.370	0.000	0.000	
2.380	0.000	0.000	
2.390	0.000	0.000	
2.400	0.000	0.000	
2.410	0.000	0.000	
2.420	0.000	0.000	
2.430	0.000	0.000	
2.440	0.000	0.000	
2.450	0.000	0.000	
2.460	0.000	0.000	
2.470	0.000	0.000	
2.480	0.000	0.000	
2.490	0.000	0.000	
2.500	0.000	0.000	
2.510	0.000	0.000	
2.520	0.000	0.000	
2.530	0.000	0.000	
2.540	0.000	0.000	
2.550	0.000	0.000	
2.560	0.000	0.000	
2.570	0.000	0.000	
2.580	0.000	0.000	
2.590	0.000	0.000	
2.600	0.000	0.000	
2.610	0.000	0.000	
2.620	0.000	0.000	
2.630	0.000	0.000	
2.640	0.000	0.000	
2.650	0.000	0.000	
2.660	0.000	0.000	
2.670	0.000	0.000	
2.680	0.000	0.000	
2.690	0.000	0.000	
2.700	0.000	0.000	
2.710	0.000	0.000	
2.720	0.000	0.000	
2.730	0.000	0.000	
2.740	0.000	0.000	
2.750	0.000	0.000	
2.760	0.000	0.000	
2.770	0.000	0.000	
2.780	0.000	0.000	
2.790	0.000	0.000	
2.800	0.000	0.000	
2.810	0.000	0.000	
2.820	0.000	0.000	
2.830	0.000	0.000	
2.840	0.000	0.000	
2.850	0.000	0.000	
2.860	0.000	0.000	
2.870	0.000	0.000	
2.880	0.000	0.000	
2.890	0.000	0.000	
2.900	0.000	0.000	
2.910	0.000	0.000	
2.920	0.000	0.000	
2.930	0.000	0.000	
2.940	0.000	0.000	
2.950	0.000	0.000	
2.960	0.000	0.000	
2.970	0.000	0.000	
2.980	0.000	0.000	
2.990	0.000	0.000	
3.000	0.000	0.000	
3.010	0.000	0.000	
3.020	0.000	0.000	
3.030	0.000	0.00011	
3.040	0.000	0.00010	
3.050	0.000	0.000	
3.060	0.000	0.000	
3.070	0.000	0.000	
3.080	0.000	0.000	
3.090	0.000	0.000	
3.100	0.000	0.000	
3.110	0.000	0.00010	
3.120	0.000	0.000	
3.130	0.000	0.000	
3.140	0.000	0.000	
3.150	0.000	0.000	
3.160	0.000	0.000	
3.170	0.000	0.000	
3.180	0.000	0.000	
3.190	0.000	0.000	
3.200	0.000	0.000	
3.210	0.000	0.000	
3.220	0.000	0.000	
3.230	0.000	0.000	
3.240	0.000	0.000	
3.250	0.000	0.00010	
3.260	0.000	0.000	
3.270	0.000	0.000	
3.280	0.000	0.000	
3.290	0.000	0.000	
3.300	0.000	0.000	
3.310	0.000	0.000	
3.320	0.000	0.000	
3.330	0.000	0.000	
3.340	0.000	0.000	
3.350	0.000	0.000	
3.360	0.000	0.000	
3.370	0.000	0.000	
3.380	0.000	0.000	
3.390	0.000	0.000	
3.400	0.000	0.000	
3.410	0.000	0.000	
3.420	0.000	0.00010	
3.430	0.000	0.00010	
3.440	0.000	0.00010	
3.450	0.000	0.000	
3.460	0.000	0.000	
3.470	0.000	0.000	
3.480	0.000	0.000	
3.490	0.000	0.000	
3.500	0.000	0.00011	
3.510	0.000	0.000	
3.520	0.000	0.000	
3.530	0.000	0.000	
3.540	0.000	0.000	
3.550	0.000	0.000	
3.560	0.000	0.000	
3.570	0.000	0.000	
3.580	0.000	0.000	
3.590	0.000	0.000	
3.600	0.000	0.000	
3.610	0.000	0.00010	
3.620	0.000	0.000	
3.630	0.000	0.000	
3.640	0.000	0.000	
3.650	0.000	0.000	
3.660	0.000	0.000	
3.670	0.000	0.000	
3.680	0.000	0.000	
3.690	0.000	0.000	
3.700	0.000	0.000	
3.710	0.000	0.000	
3.720	0.000	0.000	
3.730	0.000	0.000	
3.740	0.000	0.000	
3.750	0.000	0.000	
3.760	0.000	0.000	
3.770	0.000	0.000	
3.780	0.000	0.000	
3.790	0.000	0.000	
3.800	0.000	0.000	
3.810	0.000	0.000	
3.820	0.000	0.000	
3.830	0.000	0.000	
3.840	0.000	0.000	
3.850	0.000	0.000	
3.860	0.000	0.000	
3.870	0.000	0.000	
3.880	0.000	0.000	
3.890	0.000	0.000	
3.900	0.000	0.000	
3.910	0.000	0.000	
3.920	0.000	0.000	
3.930	0.000	0.000	
3.940	0.000	0.000	
3.950	0.000	0.000	
3.960	0.000	0.000	
3.970	0.000	0.00012	
3.980	0.000	0.00011	
3.990	0.000	0.000	
4.000	0.000	0.000	
4.010	0.000	0.000	
4.020	0.000	0.000	
4.030	0.000	0.000	
4.040	0.000	0.000	
4.050	0.000	0.00012	
4.060	0.000	0.00013	
4.070	0.000	0.00013	
4.080	0.000	0.00011	
4.090	0.000	0.000	
4.100	0.000	0.000	
4.110	0.000	0.000	
4.120	0.000	0.000	
4.130	0.000	0.00010	
4.140	0.000	0.00010	
4.150	0.000	0.000	
4.160	0.000	0.000	
4.170	0.000	0.000	
4.180	0.000	0.000	
4.190	0.000	0.00010	
4.200	0.000	0.00011	
4.210	0.000	0.00012	
4.220	0.000	0.00012	
4.230	0.000	0.00011	
4.240	0.000	0.00011	
4.250	0.000	0.000	
4.260	0.000	0.000	
4.270	0.000	0.000	
4.280	0.000	0.000	
4.290	0.000	0.000	
4.300	0.000	0.000	
4.310	0.000	0.000	
4.320	0.000	0.000	
4.330	0.000	0.000	
4.340	0.000	0.000	
4.350	0.000	0.000	
4.360	0.000	0.000	
4.370	0.000	0.000	
4.380	0.000	0.000	
4.390	0.000	0.000	
4.400	0.000	0.00010	
4.410	0.000	0.00010	
4.420	0.000	0.000	
4.430	0.000	0.000	
4.440	0.000	0.000	
4.450	0.000	0.000	
4.460	0.000	0.000	
4.470	0.000	0.000	
4.480	0.000	0.00011	
4.490	0.000	0.00011	
4.500	0.000	0.000	
4.510	0.000	0.000	
4.520	0.000	0.000	
4.530	0.000	0.00011	
4.540	0.000	0.00011	
4.550	0.000	0.000	
4.560	0.000	0.000	
4.570	0.000	0.000	
4.580	0.000	0.000	
4.590	0.000	0.000	
4.600	0.000	0.000	
4.610	0.000	0.000	
4.620	0.000	0.000	
4.630	0.000	0.000	
4.640	0.000	0.000	
4.650	0.000	0.000	
4.660	0.000	0.000	
4.670	0.000	0.000	
4.680	0.000	0.000	
4.690	0.000	0.000	
4.700	0.000	0.000	
4.710	0.000	0.000	
4.720	0.000	0.000	
4.730	0.000	0.000	
4.740	0.000	0.000	
4.750	0.000	0.00011	
4.760	0.000	0.000	
4.770	0.000	0.000	
4.780	0.000	0.000	
4.790	0.000	0.000	
4.800	0.000	0.00011	
4.810	0.000	0.00011	
4.820	0.000	0.00010	
4.830	0.000	0.000	
4.840	0.000	0.000	
4.850	0.000	0.000	
4.860	0.000	0.000	
4.870	0.000	0.000	
4.880	0.000	0.000	
4.890	0.000	0.000	
4.900	0.000	0.000	
4.910	0.000	0.000	
4.920	0.000	0.000	
4.930	0.000	0.000	
4.940	0.000	0.000	
4.950	0.000	0.000	
4.960	0.000	0.000	
4.970	0.000	0.000	
4.980	0.000	0.000	
4.990	0.000	0.000	
5.000	0.000	0.000	
5.010	0.000	0.000	
5.020	0.000	0.000	
5.030	0.000	0.00011	
5.040	0.000	0.00012	
5.050	0.000	0.00010	
5.060	0.000	0.00010	
5.070	0.000	0.000	
5.080	0.000	0.000	
5.090	0.000	0.000	
5.100	0.000	0.00011	
5.110	0.000	0.000	
5.120	0.000	0.000	
5.130	0.000	0.000	
5.140	0.000	0.00011	
5.150	0.000	0.00011	
5.160	0.000	0.00011	
5.170	0.000	0.00011	
5.180	0.000	0.00011	
5.190	0.000	0.000	
5.200	0.000	0.000	
5.210	0.000	0.000	
5.220	0.000	0.000	
5.230	0.000	0.000	
5.240	0.000	0.000	
5.250	0.000	0.000	
5.260	0.000	0.000	
5.270	0.000	0.000	
5.280	0.000	0.000	
5.290	0.000	0.000	
5.300	0.000	0.000	
5.310	0.000	0.000	
5.320	0.000	0.000	
5.330	0.000	0.000	
5.340	0.000	0.00010	
5.350	0.000	0.000	
5.360	0.000	0.000	
5.370	0.000	0.000	
5.380	0.000	0.000	
5.390	0.000	0.000	
5.400	0.000	0.000	
5.410	0.000	0.000	
5.420	0.000	0.000	
5.430	0.000	0.000	
5.440	0.000	0.000	
5.450	0.000	0.000	
5.460	0.000	0.00011	
5.470	0.000	0.00012	
5.480	0.000	0.00013	
5.490	0.000	0.00011	
5.500	0.000	0.000	
5.510	0.000	0.000	
5.520	0.000	0.000	
5.530	0.000	0.000	
5.540	0.000	0.000	
5.550	0.000	0.00013	
5.560	0.000	0.00014	
5.570	0.000	0.00011	
5.580	0.000	0.000	
5.590	0.000	0.000	
5.600	0.000	0.00011	
5.610	0.000	0.00011	
5.620	0.000	0.000	
5.630	0.000	0.000	
5.640	0.000	0.00010	
5.650	0.000	0.000	
5.660	0.000	0.000	
5.670	0.000	0.000	
5.680	0.000	0.000	
5.690	0.000	0.000	
5.700	0.000	0.000	
5.710	0.000	0.000	
5.720	0.000	0.000	
5.730	0.000	0.000	
5.740	0.000	0.000	
5.750	0.000	0.000	
5.760	0.000	0.000	
5.770	0.000	0.000	
5.780	0.000	0.000	
5.790	0.000	0.000	
5.800	0.000	0.000	
5.810	0.000	0.000	
5.820	0.000	0.000	
5.830	0.000	0.000	
5.840	0.000	0.000	
5.850	0.000	0.000	
5.860	0.000	0.000	
5.870	0.000	0.000	
5.880	0.000	0.000	
5.890	0.000	0.000	
5.900	0.000	0.000	
5.910	0.000	0.000	
5.920	0.000	0.000	
5.930	0.000	0.000	
5.940	0.000	0.000	
5.950	0.000	0.000	
5.960	0.000	0.000	
5.970	0.000	0.000	
5.980	0.000	0.000	
5.990	0.000	0.000	
6.000	0.000	0.000	
6.010	0.000	0.000	
6.020	0.000	0.000	
6.030	0.000	0.000	
6.040	0.000	0.000	
6.050	0.000	0.000	
6.060	0.000	0.000	
6.070	0.000	0.000	
6.080	0.000	0.000	
6.090	0.000	0.000	
6.100	0.000	0.000	
6.110	0.000	0.00010	
6.120	0.000	0.000	
6.130	0.000	0.000	
6.140	0.000	0.000	
6.150	0.000	0.000	
6.160	0.000	0.000	
6.170	0.000	0.000	
6.180	0.000	0.000	
6.190	0.000	0.000	
6.200	0.000	0.000	
6.210	0.000	0.000	
6.220	0.000	0.000	
6.230	0.000	0.000	
6.240	0.000	0.000	
6.250	0.000	0.000	
6.260	0.000	0.000	
6.270	0.000	0.000	
6.280	0.000	0.000	
6.290	0.000	0.000	
6.300	0.000	0.000	
6.310	0.000	0.000	
6.320	0.000	0.000	
6.330	0.000	0.000	
6.340	0.000	0.000	
6.350	0.000	0.000	
6.360	0.000	0.000	
6.370	0.000	0.000	
6.380	0.000	0.000	
6.390	0.000	0.000	
6.400	0.000	0.000	
6.410	0.000	0.000	
6.420	0.000	0.000	
6.430	0.000	0.000	
6.440	0.000	0.000	
6.450	0.000	0.000	
6.460	0.000	0.000	
6.470	0.000	0.000	
6.480	0.000	0.000	
6.490	0.000	0.000	
6.500	0.000	0.000	
6.510	0.000	0.000	
6.520	0.000	0.000	
6.530	0.000	0.000	
6.540	0.000	0.000	
6.550	0.000	0.000	
6.560	0.000	0.000	
6.570	0.000	0.000	
6.580	0.000	0.000	
6.590	0.000	0.000	
6.600	0.000	0.000	
6.610	0.000	0.000	
6.620	0.000	0.000	
6.630	0.000	0.000	
6.640	0.000	0.000	
6.650	0.000	0.000	
6.660	0.000	0.000	
6.670	0.000	0.000	
6.680	0.000	0.000	
6.690	0.000	0.000	
6.700	0.000	0.000	
6.710	0.000	0.000	
6.720	0.000	0.000	
6.730	0.000	0.000	
6.740	0.000	0.000	
6.750	0.000	0.000	
6.760	0.000	0.000	
6.770	0.000	0.000	
6.780	0.000	0.000	
6.790	0.000	0.000	
6.800	0.000	0.000	
6.810	0.000	0.000	
6.820	0.000	0.000	
6.830	0.000	0.000	
6.840	0.000	0.000	
6.850	0.000	0.000	
6.860	0.000	0.000	
6.870	0.000	0.000	
6.880	0.000	0.000	
6.890	0.000	0.000	
6.900	0.000	0.000	
6.910	0.000	0.000	
6.920	0.000	0.00010	
6.930	0.000	0.00010	
6.940	0.000	0.000	
6.950	0.000	0.000	
6.960	0.000	0.000	
6.970	0.000	0.000	
6.980	0.000	0.000	
6.990	0.000	0.000	
7.000	0.000	0.000	
7.010	0.000	0.000	
7.020	0.000	0.000	
7.030	0.000	0.000	
7.040	0.000	0.000	
7.050	0.000	0.00011	
7.060	0.000	0.000	
7.070	0.000	0.000	
7.080	0.000	0.000	
7.090	0.000	0.000	
7.100	0.000	0.000	
7.110	0.000	0.000	
7.120	0.000	0.000	
7.130	0.000	0.000	
7.140	0.000	0.000	
7.150	0.000	0.00011	
7.160	0.000	0.000	
7.170	0.000	0.000	
7.180	0.000	0.000	
7.190	0.000	0.000	
7.200	0.000	0.000	
7.210	0.000	0.000	
7.220	0.000	0.000	
7.230	0.000	0.000	
7.240	0.000	0.000	
7.250	0.000	0.000	
7.260	0.000	0.000	
7.270	0.000	0.00011	
7.280	0.000	0.00012	
7.290	0.000	0.000	
7.300	0.000	0.000	
7.310	0.000	0.000	
7.320	0.000	0.000	
7.330	0.000	0.000	
7.340	0.000	0.000	
7.350	0.000	0.000	
7.360	0.000	0.000	
7.370	0.000	0.000	
7.380	0.000	0.000	
7.390	0.000	0.000	
7.400	0.000	0.000	
7.410	0.000	0.000	
7.420	0.000	0.000	
7.430	0.000	0.000	
7.440	0.000	0.000	
7.450	0.000	0.000	
7.460	0.000	0.000	
7.470	0.000	0.000	
7.480	0.000	0.000	
7.490	0.000	0.000	
7.500	0.000	0.000	
7.510	0.000	0.000	
7.520	0.000	0.000	
7.530	0.000	0.000	
7.540	0.000	0.000	
7.550	0.000	0.000	
7.560	0.000	0.000	
7.570	0.000	0.000	
7.580	0.000	0.000	
7.590	0.000	0.000	
7.600	0.000	0.00010	
7.610	0.000	0.000	
7.620	0.000	0.000	
7.630	0.000	0.000	
7.640	0.000	0.000	
7.650	0.000	0.000	
7.660	0.000	0.000	
7.670	0.000	0.000	
7.680	0.000	0.000	
7.690	0.000	0.000	
7.700	0.000	0.000	
7.710	0.000	0.000	
7.720	0.000	0.000	
7.730	0.000	0.00011	
7.740	0.000	0.00011	
7.750	0.000	0.000	
7.760	0.000	0.000	
7.770	0.000	0.000	
7.780	0.000	0.000	
7.790	0.000	0.000	
7.800	0.000	0.000	
7.810	0.000	0.00011	
7.820	0.000	0.000	
7.830	0.000	0.000	
7.840	0.000	0.000	
7.850	0.000	0.00012	
7.860	0.000	0.00013	
7.870	0.000	0.00011	
7.880	0.000	0.00010	
7.890	0.000	0.00011	
7.900	0.000	0.00012	
7.910	0.000	0.00014	
7.920	0.000	0.00014	
7.930	0.000	0.00013	
7.940	0.000	0.00012	
7.950	0.000	0.00011	
7.960	0.000	0.00013	
7.970	0.000	0.00015	
7.980	0.000	0.00015	
7.990	0.000	0.00014	
8.000	0.000	0.00013	
8.010	0.000	0.00012	
8.020	0.000	0.00012	
8.030	0.000	0.00013	
8.040	0.000	0.00013	
8.050	0.000	0.00011	
8.060	0.000	0.000	
8.070	0.000	0.00011	
8.080	0.000	0.00014	
8.090	0.000	0.00016	
8.100	0.000	0.00017	
8.110	0.000	0.00014	
8.120	0.000	0.00014	
8.130	0.000	0.00014	
8.140	0.000	0.00014	
8.150	0.000	0.00014	
8.160	0.000	0.00014	
8.170	0.000	0.00016	
8.180	0.000	0.00015	
8.190	0.000	0.00012	
8.200	0.000	0.00012	
8.210	0.000	0.00014	
8.220	0.000	0.00016	
8.230	0.000	0.00015	
8.240	0.000	0.00014	
8.250	0.000	0.00014	
8.260	0.000	0.00015	
8.270	0.000	0.00016	
8.280	0.000	0.00017	
8.290	0.000	0.00018	
8.300	0.000	0.00018	
8.310	0.000	0.00017	
8.320	0.000	0.00016	
8.330	0.000	0.00018	
8.340	0.000	0.00019	
8.350	0.000	0.00018	
8.360	0.000	0.00016	
8.370	0.000	0.00016	
8.380	0.000	0.00017	
8.390	0.000	0.00017	
8.400	0.000	0.00016	
8.410	0.000	0.00015	
8.420	0.000	0.00018	
8.430	0.000	0.00017	
8.440	0.000	0.00014	
8.450	0.000	0.00012	
8.460	0.000	0.00013	
8.470	0.000	0.00015	
8.480	0.000	0.00015	
8.490	0.000	0.00017	
8.500	0.000	0.00017	
8.510	0.000	0.00016	
8.520	0.000	0.00019	
8.530	0.000	0.00022	
8.540	0.000	0.00020	
8.550	0.000	0.00018	
8.560	0.000	0.00018	
8.570	0.000	0.00020	
8.580	0.000	0.00023	
8.590	0.000	0.00020	
8.600	0.000	0.00017	
8.610	0.000	0.00017	
8.620	0.000	0.00020	
8.630	0.000	0.00020	
8.640	0.000	0.00021	
8.650	0.000	0.00023	
8.660	0.000	0.00022	
8.670	0.000	0.00021	
8.680	0.000	0.00018	
8.690	0.000	0.00019	
8.700	0.000	0.00020	
8.710	0.000	0.00020	
8.720	0.000	0.00021	
8.730	0.000	0.00022	
8.740	0.000	0.00021	
8.750	0.000	0.00020	
8.760	0.000	0.00021	
8.770	0.000	0.00022	
8.780	0.000	0.00023	
8.790	0.000	0.00022	
8.800	0.000	0.00019	
8.810	0.000	0.00019	
8.820	0.000	0.00019	
8.830	0.000	0.00022	
8.840	0.000	0.00024	
8.850	0.000	0.00022	
8.860	0.000	0.00020	
8.870	0.000	0.00020	
8.880	0.000	0.00021	
8.890	0.000	0.00022	
8.900	0.000	0.00023	
8.910	0.000	0.00024	
8.920	0.000	0.00024	
8.930	0.000	0.00024	
8.940	0.000	0.00023	
8.950	0.000	0.00024	
8.960	0.000	0.00024	
8.970	0.000	0.00024	
8.980	0.000	0.00025	
8.990	0.000	0.00025	
9.000	0.000	0.00024	
9.010	0.000	0.00022	
9.020	0.000	0.00022	
9.030	0.000	0.00023	
9.040	0.000	0.00023	
9.050	0.000	0.00021	
9.060	0.000	0.00023	
9.070	0.000	0.00024	
9.080	0.000	0.00024	
9.090	0.000	0.00022	
9.100	0.000	0.00023	
9.110	0.000	0.00025	
9.120	0.000	0.00026	
9.130	0.000	0.00026	
9.140	0.000	0.00026	
9.150	0.000	0.00026	
9.160	0.000	0.00027	
9.170	0.000	0.00027	
9.180	0.000	0.00028	
9.190	0.000	0.00029	
9.200	0.000	0.00028	
9.210	0.000	0.00028	
9.220	0.000	0.00028	
9.230	0.000	0.00028	
9.240	0.000	0.00029	
9.250	0.000	0.00032	
9.260	0.000	0.00032	
9.270	0.000	0.00032	
9.280	0.000	0.00032	
9.290	0.000	0.00030	
9.300	0.000	0.00030	
9.310	0.000	0.00031	
9.320	0.000	0.00030	
9.330	0.000	0.00030	
9.340	0.000	0.00031	
9.350	0.000	0.00031	
9.360	0.000	0.00031	
9.370	0.000	0.00033	
9.380	0.000	0.00033	
9.390	0.000	0.00031	
9.400	0.000	0.00031	
9.410	0.000	0.00030	
9.420	0.000	0.00030	
9.430	0.000	0.00029	
9.440	0.000	0.00028	
9.450	0.000	0.00029	
9.460	0.000	0.00031	
9.470	0.000	0.00033	
9.480	0.000	0.00033	
9.490	0.000	0.00034	
9.500	0.000	0.00035	
9.510	0.000	0.00036	
9.520	0.000	0.00038	
9.530	0.000	0.00037	
9.540	0.000	0.00036	
9.550	0.000	0.00034	
9.560	0.000	0.00032	
9.570	0.000	0.00034	
9.580	0.000	0.00036	
9.590	0.000	0.00037	
9.600	0.000	0.00037	
9.610	0.000	0.00036	
9.620	0.000	0.00036	
9.630	0.000	0.00036	
9.640	0.000	0.00038	
9.650	0.000	0.00038	
9.660	0.000	0.00037	
9.670	0.000	0.00037	
9.680	0.000	0.00039	
9.690	0.000	0.00041	
9.700	0.000	0.00041	
9.710	0.000	0.00042	
9.720	0.000	0.00044	
9.730	0.000	0.00043	
9.740	0.000	0.00042	
9.750	0.000	0.00042	
9.760	0.000	0.00042	
9.770	0.000	0.00042	
9.780	0.000	0.00043	
9.790	0.000	0.00043	
9.800	0.000	0.00043	
9.810	0.000	0.00041	
9.820	0.000	0.00041	
9.830	0.000	0.00044	
9.840	0.000	0.00046	
9.850	0.000	0.00044	
9.860	0.000	0.00042	
9.870	0.000	0.00042	
9.880	0.000	0.00042	
9.890	0.000	0.00044	
9.900	0.000	0.00046	
9.910	0.000	0.00047	
9.920	0.000	0.00050	
9.930	0.000	0.00050	
9.940	0.000	0.00048	
9.950	0.000	0.00046	
9.960	0.000	0.00045	
9.970	0.000	0.00044	
9.980	0.000	0.00046	
9.990	0.000	0.00050	
10.00	0.000	0.00049	
10.01	0.000	0.00048	
10.02	0.000	0.00050	
10.03	0.000	0.00051	
10.04	0.000	0.00052	
10.05	0.000	0.00050	
10.06	0.000	0.00050	
10.07	0.000	0.00051	
10.08	0.000	0.00053	
10.09	0.000	0.00053	
10.10	0.000	0.00052	
10.11	0.000	0.00051	
10.12	0.000	0.00052	
10.13	0.000	0.00052	
10.14	0.000	0.00051	
10.15	0.000	0.00051	
10.16	0.000	0.00053	
10.17	0.000	0.00054	
10.18	0.000	0.00056	
10.19	0.000	0.00057	
10.20	0.000	0.00060	
10.21	0.000	0.00063	
10.22	0.000	0.00061	
10.23	0.000	0.00059	
10.24	0.000	0.00059	
10.25	0.000	0.00061	
10.26	0.000	0.00063	
10.27	0.000	0.00065	
10.28	0.000	0.00066	
10.29	0.000	0.00066	
10.30	0.000	0.00062	
10.31	0.000	0.00061	
10.32	0.000	0.00063	
10.33	0.000	0.00065	
10.34	0.000	0.00064	
10.35	0.000	0.00063	
10.36	0.000	0.00064	
10.37	0.000	0.00066	
10.38	0.000	0.00065	
10.39	0.000	0.00065	
10.40	0.000	0.00067	
10.41	0.000	0.00068	
10.42	0.000	0.00067	
10.43	0.000	0.00065	
10.44	0.000	0.00066	
10.45	0.000	0.00066	
10.46	0.000	0.00065	
10.47	0.000	0.00065	
10.48	0.000	0.00066	
10.49	0.000	0.00067	
10.50	0.000	0.00068	
10.51	0.000	0.00068	
10.52	0.000	0.00068	
10.53	0.000	0.00069	
10.54	0.000	0.00071	
10.55	0.000	0.00070	
10.56	0.000	0.00071	
10.57	0.000	0.00071	
10.58	0.000	0.00070	
10.59	0.000	0.00070	
10.60	0.000	0.00070	
10.61	0.000	0.00070	
10.62	0.000	0.00071	
10.63	0.000	0.00072	
10.64	0.000	0.00071	
10.65	0.000	0.00071	
10.66	0.000	0.00073	
10.67	0.000	0.00074	
10.68	0.000	0.00076	
10.69	0.000	0.00076	
10.70	0.000	0.00078	
10.71	0.000	0.00078	
10.72	0.000	0.00076	
10.73	0.000	0.00077	
10.74	0.000	0.00078	
10.75	0.000	0.00081	
10.76	0.000	0.00082	
10.77	0.000	0.00083	
10.78	0.000	0.00082	
10.79	0.000	0.00081	
10.80	0.000	0.00080	
10.81	0.000	0.00079	
10.82	0.000	0.00078	
10.83	0.000	0.00079	
10.84	0.000	0.00080	
10.85	0.000	0.00080	
10.86	0.000	0.00082	
10.87	0.000	0.00083	
10.88	0.000	0.00083	
10.89	0.000	0.00082	
10.90	0.000	0.00082	
10.91	0.000	0.00082	
10.92	0.000	0.00082	
10.93	0.000	0.00082	
10.94	0.000	0.00082	
10.95	0.000	0.00083	
10.96	0.000	0.00084	
10.97	0.000	0.00085	
10.98	0.000	0.00087	
10.99	0.000	0.00089	
11.00	0.000	0.00091	
11.01	0.000	0.00090	
11.02	0.000	0.00089	
11.03	0.000	0.00090	
11.04	0.000	0.00092	
11.05	0.000	0.00092	
11.06	0.000	0.00090	
11.07	0.000	0.00089	
11.08	0.000	0.00091	
11.09	0.000	0.00092	
11.10	0.000	0.00091	
11.11	0.000	0.00091	
11.12	0.000	0.00094	
11.13	0.000	0.00095	
11.14	0.000	0.00093	
11.15	0.000	0.00094	
11.16	0.000	0.00096	
11.17	0.000	0.00097	
11.18	0.000	0.00096	
11.19	0.000	0.00097	
11.20	0.000	0.00100	
11.21	0.000	0.00100	
11.22	0.000	0.00099	
11.23	0.000	0.00098	
11.24	0.000	0.00097	
11.25	0.000	0.00099	
11.26	0.000	0.00100	
11.27	0.000	0.00100	
11.28	0.000	0.00101	
11.29	0.000	0.00102	
11.30	0.000	0.00101	
11.31	0.000	0.00101	
11.32	0.000	0.00103	
11.33	0.000	0.00105	
11.34	0.000	0.00105	
11.35	0.000	0.00106	
11.36	0.000	0.00108	
11.37	0.000	0.00111	
11.38	0.000	0.00111	
11.39	0.000	0.00111	
11.40	0.000	0.00111	
11.41	0.000	0.00110	
11.42	0.000	0.00109	
11.43	0.000	0.00110	
11.44	0.000	0.00110	
11.45	0.000	0.00112	
11.46	0.000	0.00114	
11.47	0.000	0.00114	
11.48	0.000	0.00114	
11.49	0.000	0.00116	
11.50	0.000	0.00117	
11.51	0.000	0.00115	
11.52	0.000	0.00115	
11.53	0.000	0.00115	
11.54	0.000	0.00116	
11.55	0.000	0.00117	
11.56	0.000	0.00117	
11.57	0.000	0.00118	
11.58	0.000	0.00121	
11.59	0.000	0.00124	
11.60	0.000	0.00125	
11.61	0.000	0.00124	
11.62	0.000	0.00123	
11.63	0.000	0.00121	
11.64	0.000	0.00120	
11.65	0.000	0.00122	
11.66	0.000	0.00123	
11.67	0.000	0.00124	
11.68	0.000	0.00127	
11.69	0.000	0.00129	
11.70	0.000	0.00132	
11.71	0.000	0.00132	
11.72	0.000	0.00131	
11.73	0.000	0.00129	
11.74	0.000	0.00128	
11.75	0.000	0.00129	
11.76	0.000	0.00131	
11.77	0.000	0.00132	
11.78	0.000	0.00135	
11.79	0.000	0.00138	
11.80	0.000	0.00139	
11.81	0.000	0.00138	
11.82	0.000	0.00138	
11.83	0.000	0.00142	
11.84	0.000	0.00144	
11.85	0.000	0.00144	
11.86	0.000	0.00145	
11.87	0.000	0.00146	
11.88	0.000	0.00143	
11.89	0.000	0.00143	
11.90	0.000	0.00145	
11.91	0.000	0.00149	
11.92	0.000	0.00151	
11.93	0.000	0.00153	
11.94	0.000	0.00156	
11.95	0.000	0.00160	
11.96	0.000	0.00159	
11.97	0.000	0.00158	
11.98	0.000	0.00159	
11.99	0.000	0.00162	
12.00	0.000	0.00163	
12.01	0.000	0.00163	
12.02	0.000	0.00166	
12.03	0.000	0.00169	
12.04	0.000	0.00172	
12.05	0.000	0.00172	
12.06	0.000	0.00175	
12.07	0.000	0.00177	
12.08	0.000	0.00179	
12.09	0.000	0.00181	
12.10	0.000	0.00181	
12.11	0.000	0.00182	
12.12	0.000	0.00186	
12.13	0.000	0.00188	
12.14	0.000	0.00189	
12.15	0.000	0.00193	
12.16	0.000	0.00197	
12.17	0.000	0.00199	
12.18	0.000	0.00200	
12.19	0.000	0.00202	
12.20	0.000	0.00204	
12.21	0.000	0.00206	
12.22	0.000	0.00209	
12.23	0.000	0.00214	
12.24	0.000	0.00218	
12.25	0.000	0.00221	
12.26	0.000	0.00224	
12.27	0.000	0.00229	
12.28	0.000	0.00234	
12.29	0.000	0.00238	
12.30	0.000	0.00242	
12.31	0.000	0.00246	
12.32	0.000	0.00249	
12.33	0.000	0.00253	
12.34	0.000	0.00259	
12.35	0.000	0.00263	
12.36	0.000	0.00266	
12.37	0.000	0.00271	
12.38	0.000	0.00275	
12.39	0.000	0.00277	
12.40	0.000	0.00282	
12.41	0.000	0.00288	
12.42	0.000	0.00293	
12.43	0.000	0.00297	
12.44	0.000	0.00304	
12.45	0.000	0.00312	
12.46	0.000	0.00317	
12.47	0.000	0.00319	
12.48	0.000	0.00322	
12.49	0.000	0.00328	
12.50	0.000	0.00335	
12.51	0.000	0.00341	
12.52	0.000	0.00347	
12.53	0.000	0.00354	
12.54	0.000	0.00358	
12.55	0.000	0.00359	
12.56	0.000	0.00363	
12.57	0.000	0.00369	
12.58	0.000	0.00376	
12.59	0.000	0.00382	
12.60	0.000	0.00388	
12.61	0.000	0.00394	
12.62	0.000	0.00400	
12.63	0.000	0.00409	
12.64	0.000	0.00416	
12.65	0.000	0.00422	
12.66	0.000	0.00429	
12.67	0.000	0.00435	
12.68	-0.00013	0.00440	
12.69	-0.00014	0.00443	
12.70	-0.00015	0.00448	
12.71	-0.00015	0.00455	
12.72	-0.00018	0.00459	
12.73	-0.00021	0.00462	
12.74	-0.00023	0.00464	
12.75	-0.00024	0.00466	
12.76	-0.00025	0.00467	
12.77	-0.00024	0.00470	
12.78	-0.00024	0.00474	
12.79	-0.00022	0.00480	
12.80	-0.00023	0.00486	
12.81	-0.00023	0.00488	
12.82	-0.00022	0.00489	
12.83	-0.00024	0.00491	
12.84	-0.00027	0.00495	
12.85	-0.00030	0.00501	
12.86	-0.00029	0.00505	
12.87	-0.00027	0.00510	
12.88	-0.00028	0.00515	
12.89	-0.00030	0.00517	
12.90	-0.00031	0.00520	
12.91	-0.00032	0.00527	
12.92	-0.00032	0.00531	
12.93	-0.00032	0.00533	
12.94	-0.00032	0.00539	
12.95	-0.00038	0.00544	
12.96	-0.00038	0.00547	
12.97	-0.00035	0.00551	
12.98	-0.00035	0.00556	
12.99	-0.00035	0.00559	
13.00	-0.00038	0.00562	
13.01	-0.00041	0.00568	
13.02	-0.00043	0.00574	
13.03	-0.00047	0.00578	
13.04	-0.00050	0.00583	
13.05	-0.00047	0.00586	
13.06	-0.00045	0.00586	
13.07	-0.00048	0.00587	
13.08	-0.00054	0.00591	
13.09	-0.00054	0.00594	
13.10	-0.00055	0.00595	
13.11	-0.00059	0.00596	
13.12	-0.00065	0.00597	
13.13	-0.00068	0.00598	
13.14	-0.00070	0.00597	
13.15	-0.00070	0.00592	
13.16	-0.00070	0.00591	
13.17	-0.00072	0.00592	
13.18	-0.00078	0.00591	
13.19	-0.00082	0.00590	
13.20	-0.00084	0.00591	
13.21	-0.00087	0.00591	
13.22	-0.00091	0.00590	
13.23	-0.00096	0.00588	
13.24	-0.00100	0.00587	
13.25	-0.00107	0.00584	
13.26	-0.00110	0.00584	
13.27	-0.00113	0.00585	
13.28	-0.00118	0.00584	
13.29	-0.00124	0.00578	
13.30	-0.00132	0.00573	
13.31	-0.00136	0.00567	
13.32	-0.00143	0.00560	
13.33	-0.00149	0.00552	
13.34	-0.00159	0.00543	
13.35	-0.00169	0.00536	
13.36	-0.00177	0.00528	
13.37	-0.00185	0.00518	
13.38	-0.00197	0.00506	
13.39	-0.00206	0.00492	
13.40	-0.00216	0.00476	
13.41	-0.00228	0.00459	
13.42	-0.00238	0.00442	
13.43	-0.00252	0.00425	
13.44	-0.00266	0.00408	
13.45	-0.00273	0.00392	
13.46	-0.00284	0.00377	
13.47	-0.00297	0.00360	
13.48	-0.00311	0.00343	
13.49	-0.00322	0.00322	
13.50	-0.00332	0.00303	
13.51	-0.00343	0.00285	
13.52	-0.00352	0.00267	
13.53	-0.00363	0.00248	
13.54	-0.00377	0.00229	
13.55	-0.00387	0.00213	
13.56	-0.00398	0.00198	
13.57	-0.00409	0.00182	
13.58	-0.00421	0.00168	
13.59	-0.00430	0.00156	
13.60	-0.00435	0.00143	
13.61	-0.00445	0.00127	
13.62	-0.00459	0.00113	
13.63	-0.00471	0.00100	
13.64	-0.00479	0.00088	
13.65	-0.00489	0.00073	
13.66	-0.00500	0.00057	
13.67	-0.00509	0.00045	
13.68	-0.00518	0.00034	
13.69	-0.00529	0.00022	
13.70	-0.00540	0.000	
13.71	-0.00551	0.000	
13.72	-0.00564	-0.00017	
13.73	-0.00579	-0.00032	
13.74	-0.00590	-0.00049	
13.75	-0.00599	-0.00061	
13.76	-0.00610	-0.00071	
13.77	-0.00623	-0.00082	
13.78	-0.00632	-0.00098	
13.79	-0.00638	-0.00115	
13.80	-0.00649	-0.00128	
13.81	-0.00663	-0.00140	
13.82	-0.00677	-0.00155	
13.83	-0.00690	-0.00170	
13.84	-0.00704	-0.00183	
13.85	-0.00717	-0.00196	
13.86	-0.00730	-0.00213	
13.87	-0.00740	-0.00230	
13.88	-0.00747	-0.00242	
13.89	-0.00756	-0.00257	
13.90	-0.00770	-0.00276	
13.91	-0.00783	-0.00293	
13.92	-0.00795	-0.00307	
13.93	-0.00806	-0.00321	
13.94	-0.00817	-0.00337	
13.95	-0.00826	-0.00350	
13.96	-0.00837	-0.00361	
13.97	-0.00849	-0.00373	
13.98	-0.00860	-0.00387	
13.99	-0.00870	-0.00399	
14.00	-0.00878	-0.00408	
14.01	-0.00890	-0.00417	
14.02	-0.00903	-0.00428	
14.03	-0.00913	-0.00438	
14.04	-0.00921	-0.00447	
14.05	-0.00929	-0.00458	
14.06	-0.00938	-0.00473	
14.07	-0.00944	-0.00487	
14.08	-0.00951	-0.00499	
14.09	-0.00964	-0.00513	
14.10	-0.00977	-0.00529	
14.11	-0.00986	-0.00540	
14.12	-0.00997	-0.00550	
14.13	-0.01008	-0.00562	
14.14	-0.01016	-0.00575	
14.15	-0.01024	-0.00586	
14.16	-0.01033	-0.00596	
14.17	-0.01043	-0.00608	
14.18	-0.01055	-0.00622	
14.19	-0.01064	-0.00636	
14.20	-0.01070	-0.00647	
14.21	-0.01080	-0.00660	
14.22	-0.01092	-0.00676	
14.23	-0.01105	-0.00689	
14.24	-0.01116	-0.00698	
14.25	-0.01125	-0.00710	
14.26	-0.01134	-0.00721	
14.27	-0.01141	-0.00731	
14.28	-0.01151	-0.00743	
14.29	-0.01161	-0.00756	
14.30	-0.01169	-0.00770	
14.31	-0.01179	-0.00781	
14.32	-0.01190	-0.00790	
14.33	-0.01201	-0.00801	
14.34	-0.01213	-0.00813	
14.35	-0.01220	-0.00823	
14.36	-0.01230	-0.00832	
14.37	-0.01240	-0.00844	
14.38	-0.01249	-0.00856	
14.39	-0.01260	-0.00867	
14.40	-0.01271	-0.00877	
14.41	-0.01283	-0.00889	
14.42	-0.01294	-0.00902	
14.43	-0.01305	-0.00915	
14.44	-0.01316	-0.00925	
14.45	-0.01328	-0.00935	
14.46	-0.01338	-0.00949	
14.47	-0.01348	-0.00963	
14.48	-0.01359	-0.00974	
14.49	-0.01368	-0.00987	
14.50	-0.01380	-0.00998	
14.51	-0.01393	-0.01007	
14.52	-0.01405	-0.01016	
14.53	-0.01417	-0.01027	
14.54	-0.01430	-0.01039	
14.55	-0.01445	-0.01056	
14.56	-0.01454	-0.01071	
14.57	-0.01464	-0.01084	
14.58	-0.01480	-0.01098	
14.59	-0.01497	-0.01114	
14.60	-0.01512	-0.01128	
14.61	-0.01526	-0.01139	
14.62	-0.01536	-0.01154	
14.63	-0.01549	-0.01173	
14.64	-0.01561	-0.01188	
14.65	-0.01575	-0.01201	
14.66	-0.01594	-0.01215	
14.67	-0.01613	-0.01235	
14.68	-0.01629	-0.01253	
14.69	-0.01642	-0.01269	
14.70	-0.01657	-0.01284	
14.71	-0.01673	-0.01300	
14.72	-0.01688	-0.01319	
14.73	-0.01702	-0.01338	
14.74	-0.01719	-0.01357	
14.75	-0.01741	-0.01378	
14.76	-0.01761	-0.01399	
14.77	-0.01777	-0.01417	
14.78	-0.01794	-0.01441	
14.79	-0.01809	-0.01465	
14.80	-0.01824	-0.01485	
14.81	-0.01838	-0.01507	
14.82	-0.01854	-0.01533	
14.83	-0.01874	-0.01560	
14.84	-0.01895	-0.01584	
14.85	-0.01913	-0.01607	
14.86	-0.01927	-0.01629	
14.87	-0.01943	-0.01649	
14.88	-0.01959	-0.01664	
14.89	-0.01975	-0.01679	
14.90	-0.01992	-0.01695	
14.91	-0.02008	-0.01708	
14.92	-0.02020	-0.01721	
14.93	-0.02033	-0.01734	
14.94	-0.02051	-0.01746	
14.95	-0.02073	-0.01758	
14.96	-0.02094	-0.01770	
14.97	-0.02108	-0.01783	
14.98	-0.02123	-0.01798	
14.99	-0.02143	-0.01814	
15.00	-0.02161	-0.01829	
15.01	-0.02178	-0.01842	
15.02	-0.02196	-0.01859	
15.03	-0.02216	-0.01878	
15.04	-0.02238	-0.01897	
15.05	-0.02257	-0.01915	
15.06	-0.02279	-0.01934	
15.07	-0.02300	-0.01955	
15.08	-0.02321	-0.01977	
15.09	-0.02340	-0.01997	
15.10	-0.02360	-0.02019	
15.11	-0.02385	-0.02045	
15.12	-0.02407	-0.02069	
15.13	-0.02428	-0.02093	
15.14	-0.02448	-0.02121	
15.15	-0.02467	-0.02153	
15.16	-0.02488	-0.02184	
15.17	-0.02510	-0.02215	
15.18	-0.02535	-0.02250	
15.19	-0.02561	-0.02285	
15.20	-0.02587	-0.02322	
15.21	-0.02614	-0.02360	
15.22	-0.02646	-0.02399	
15.23	-0.02672	-0.02442	
15.24	-0.02695	-0.02486	
15.25	-0.02724	-0.02528	
15.26	-0.02756	-0.02570	
15.27	-0.02781	-0.02611	
15.28	-0.02805	-0.02650	
15.29	-0.02829	-0.02688	
15.30	-0.02858	-0.02730	
15.31	-0.02889	-0.02778	
15.32	-0.02920	-0.02829	
15.33	-0.02948	-0.02875	
15.34	-0.02972	-0.02922	
15.35	-0.03001	-0.02972	
15.36	-0.03032	-0.03016	
15.37	-0.03054	-0.03056	
15.38	-0.03077	-0.03101	
15.39	-0.03105	-0.03147	
15.40	-0.03133	-0.03188	
15.41	-0.03159	-0.03222	
15.42	-0.03180	-0.03254	
15.43	-0.03203	-0.03290	
15.44	-0.03227	-0.03328	
15.45	-0.03244	-0.03361	
15.46	-0.03265	-0.03391	
15.47	-0.03288	-0.03422	
15.48	-0.03310	-0.03455	
15.49	-0.03328	-0.03487	
15.50	-0.03347	-0.03516	
15.51	-0.03369	-0.03544	
15.52	-0.03393	-0.03575	
15.53	-0.03418	-0.03602	
15.54	-0.03442	-0.03628	
15.55	-0.03464	-0.03651	
15.56	-0.03482	-0.03671	
15.57	-0.03500	-0.03689	
15.58	-0.03521	-0.03705	
15.59	-0.03546	-0.03725	
15.60	-0.03568	-0.03750	
15.61	-0.03582	-0.03768	
15.62	-0.03596	-0.03768	
15.63	-0.03610	-0.03761	
15.64	-0.03621	-0.03759	
15.65	-0.03629	-0.03760	
15.66	-0.03640	-0.03760	
15.67	-0.03654	-0.03756	
15.68	-0.03668	-0.03758	
15.69	-0.03680	-0.03767	
15.70	-0.03695	-0.03777	
15.71	-0.03710	-0.03780	
15.72	-0.03728	-0.03778	
15.73	-0.03750	-0.03775	
15.74	-0.03774	-0.03772	
15.75	-0.03797	-0.03779	
15.76	-0.03821	-0.03788	
15.77	-0.03848	-0.03791	
15.78	-0.03876	-0.03792	
15.79	-0.03903	-0.03793	
15.80	-0.03932	-0.03792	
15.81	-0.03963	-0.03781	
15.82	-0.03997	-0.03768	
15.83	-0.04030	-0.03760	
15.84	-0.04060	-0.03758	
15.85	-0.04089	-0.03768	
15.86	-0.04119	-0.03782	
15.87	-0.04143	-0.03790	
15.88	-0.04161	-0.03787	
15.89	-0.04182	-0.03788	
15.90	-0.04201	-0.03797	
15.91	-0.04218	-0.03808	
15.92	-0.04231	-0.03814	
15.93	-0.04239	-0.03817	
15.94	-0.04247	-0.03816	
15.95	-0.04254	-0.03815	
15.96	-0.04261	-0.03813	
15.97	-0.04271	-0.03805	
15.98	-0.04283	-0.03794	
15.99	-0.04290	-0.03784	
16.00	-0.04295	-0.03772	
16.01	-0.04305	-0.03761	
16.02	-0.04317	-0.03746	
16.03	-0.04327	-0.03728	
16.04	-0.04339	-0.03708	
16.05	-0.04348	-0.03687	
16.06	-0.04356	-0.03669	
16.07	-0.04364	-0.03656	
16.08	-0.04373	-0.03646	
16.09	-0.04382	-0.03636	
16.10	-0.04390	-0.03623	
16.11	-0.04399	-0.03615	
16.12	-0.04408	-0.03617	
16.13	-0.04415	-0.03618	
16.14	-0.04427	-0.03617	
16.15	-0.04437	-0.03618	
16.16	-0.04446	-0.03622	
16.17	-0.04452	-0.03629	
16.18	-0.04458	-0.03637	
16.19	-0.04466	-0.03645	
16.20	-0.04470	-0.03651	
16.21	-0.04475	-0.03655	
16.22	-0.04479	-0.03657	
16.23	-0.04486	-0.03661	
16.24	-0.04495	-0.03666	
16.25	-0.04502	-0.03670	
16.26	-0.04504	-0.03670	
16.27	-0.04506	-0.03668	
16.28	-0.04511	-0.03668	
16.29	-0.04516	-0.03672	
16.30	-0.04519	-0.03677	
16.31	-0.04522	-0.03684	
16.32	-0.04522	-0.03688	
16.33	-0.04525	-0.03691	
16.34	-0.04528	-0.03694	
16.35	-0.04530	-0.03694	
16.36	-0.04535	-0.03694	
16.37	-0.04540	-0.03695	
16.38	-0.04540	-0.03696	
16.39	-0.04540	-0.03697	
16.40	-0.04544	-0.03699	
16.41	-0.04543	-0.03697	
16.42	-0.04541	-0.03695	
16.43	-0.04545	-0.03695	
16.44	-0.04552	-0.03695	
16.45	-0.04554	-0.03694	
16.46	-0.04555	-0.03695	
16.47	-0.04557	-0.03697	
16.48	-0.04558	-0.03696	
16.49	-0.04562	-0.03696	
16.50	-0.04568	-0.03698	
16.51	-0.04570	-0.03698	
16.52	-0.04569	-0.03697	
16.53	-0.04569	-0.03697	
16.54	-0.04569	-0.03696	
16.55	-0.04572	-0.03695	
16.56	-0.04573	-0.03691	
16.57	-0.04573	-0.03687	
16.58	-0.04574	-0.03687	
16.59	-0.04573	-0.03689	
16.60	-0.04571	-0.03690	
16.61	-0.04575	-0.03689	
16.62	-0.04579	-0.03689	
16.63	-0.04580	-0.03690	
16.64	-0.04583	-0.03690	
16.65	-0.04584	-0.03691	
16.66	-0.04586	-0.03693	
16.67	-0.04585	-0.03692	
16.68	-0.04585	-0.03690	
16.69	-0.04589	-0.03692	
16.70	-0.04591	-0.03695	
16.71	-0.04592	-0.03699	
16.72	-0.04593	-0.03699	
16.73	-0.04598	-0.03699	
16.74	-0.04602	-0.03700	
16.75	-0.04603	-0.03700	
16.76	-0.04602	-0.03698	
16.77	-0.04603	-0.03698	
16.78	-0.04605	-0.03700	
16.79	-0.04604	-0.03701	
16.80	-0.04604	-0.03700	
16.81	-0.04604	-0.03699	
16.82	-0.04605	-0.03697	
16.83	-0.04609	-0.03694	
16.84	-0.04610	-0.03692	
16.85	-0.04610	-0.03691	
16.86	-0.04609	-0.03693	
16.87	-0.04613	-0.03693	
16.88	-0.04615	-0.03691	
16.89	-0.04619	-0.03692	
16.90	-0.04623	-0.03693	
16.91	-0.04622	-0.03692	
16.92	-0.04619	-0.03690	
16.93	-0.04623	-0.03689	
16.94	-0.04627	-0.03688	
16.95	-0.04626	-0.03685	
16.96	-0.04629	-0.03683	
16.97	-0.04630	-0.03682	
16.98	-0.04629	-0.03683	
16.99	-0.04630	-0.03680	
17.00	-0.04631	-0.03678	
17.01	-0.04629	-0.03676	
17.02	-0.04630	-0.03674	
17.03	-0.04632	-0.03671	
17.04	-0.04632	-0.03668	
17.05	-0.04631	-0.03669	
17.06	-0.04632	-0.03669	
17.07	-0.04631	-0.03668	
17.08	-0.04631	-0.03667	
17.09	-0.04635	-0.03668	
17.10	-0.04638	-0.03667	
17.11	-0.04638	-0.03665	
17.12	-0.04637	-0.03664	
17.13	-0.04637	-0.03662	
17.14	-0.04640	-0.03659	
17.15	-0.04642	-0.03655	
17.16	-0.04640	-0.03653	
17.17	-0.04640	-0.03651	
17.18	-0.04640	-0.03646	
17.19	-0.04641	-0.03639	
17.20	-0.04642	-0.03632	
17.21	-0.04639	-0.03628	
17.22	-0.04635	-0.03623	
17.23	-0.04631	-0.03616	
17.24	-0.04629	-0.03609	
17.25	-0.04626	-0.03600	
17.26	-0.04623	-0.03591	
17.27	-0.04623	-0.03583	
17.28	-0.04621	-0.03572	
17.29	-0.04621	-0.03559	
17.30	-0.04621	-0.03551	
17.31	-0.04623	-0.03543	
17.32	-0.04621	-0.03529	
17.33	-0.04620	-0.03504	
17.34	-0.04620	-0.03469	
17.35	-0.04622	-0.03427	
17.36	-0.04624	-0.03385	
17.37	-0.04627	-0.03344	
17.38	-0.04632	-0.03299	
17.39	-0.04638	-0.03252	
17.40	-0.04644	-0.03189	
17.41	-0.04654	-0.03101	
17.42	-0.04676	-0.03007	
17.43	-0.04710	-0.02923	
17.44	-0.04770	-0.02851	
17.45	-0.04866	-0.02780	
17.46	-0.04990	-0.02671	
17.47	-0.05123	-0.02529	
17.48	-0.05252	-0.02370	
17.49	-0.05371	-0.02213	
17.50	-0.05471	-0.02066	
17.51	-0.05558	-0.01934	
17.52	-0.05642	-0.01818	
17.53	-0.05723	-0.01711	
17.54	-0.05799	-0.01606	
17.55	-0.05873	-0.01507	
17.56	-0.05944	-0.01421	
17.57	-0.06013	-0.01349	
17.58	-0.06082	-0.01293	
17.59	-0.06153	-0.01245	
17.60	-0.06226	-0.01197	
17.61	-0.06301	-0.01143	
17.62	-0.06375	-0.01091	
17.63	-0.06446	-0.01050	
17.64	-0.06515	-0.01015	
17.65	-0.06575	-0.00980	
17.66	-0.06624	-0.00937	
17.67	-0.06669	-0.00883	
17.68	-0.06711	-0.00827	
17.69	-0.06752	-0.00775	
17.70	-0.06792	-0.00727	
17.71	-0.06830	-0.00683	
17.72	-0.06866	-0.00648	
17.73	-0.06901	-0.00619	
17.74	-0.06936	-0.00594	
17.75	-0.06974	-0.00572	
17.76	-0.07011	-0.00553	
17.77	-0.07048	-0.00533	
17.78	-0.07086	-0.00510	
17.79	-0.07128	-0.00487	
17.80	-0.07169	-0.00462	
17.81	-0.07210	-0.00430	
17.82	-0.07248	-0.00396	
17.83	-0.07284	-0.00367	
17.84	-0.07315	-0.00341	
17.85	-0.07346	-0.00319	
17.86	-0.07381	-0.00304	
17.87	-0.07417	-0.00298	
17.88	-0.07451	-0.00297	
17.89	-0.07481	-0.00301	
17.90	-0.07514	-0.00306	
17.91	-0.07548	-0.00312	
17.92	-0.07579	-0.00314	
17.93	-0.07611	-0.00309	
17.94	-0.07640	-0.00299	
17.95	-0.07666	-0.00291	
17.96	-0.07687	-0.00284	
17.97	-0.07708	-0.00279	
17.98	-0.07731	-0.00273	
17.99	-0.07755	-0.00264	
18.00	-0.07778	-0.00254	
18.01	-0.07798	-0.00249	
18.02	-0.07814	-0.00246	
18.03	-0.07832	-0.00241	
18.04	-0.07854	-0.00235	
18.05	-0.07871	-0.00232	
18.06	-0.07885	-0.00232	
18.07	-0.07900	-0.00230	
18.08	-0.07918	-0.00225	
18.09	-0.07936	-0.00217	
18.10	-0.07951	-0.00212	
18.11	-0.07962	-0.00210	
18.12	-0.07976	-0.00207	
18.13	-0.07988	-0.00205	
18.14	-0.08003	-0.00202	
18.15	-0.08016	-0.00198	
18.16	-0.08026	-0.00198	
18.17	-0.08038	-0.00196	
18.18	-0.08052	-0.00192	
18.19	-0.08062	-0.00191	
18.20	-0.08069	-0.00191	
18.21	-0.08076	-0.00190	
18.22	-0.08088	-0.00188	
18.23	-0.08101	-0.00190	
18.24	-0.08114	-0.00190	
18.25	-0.08122	-0.00188	
18.26	-0.08126	-0.00184	
18.27	-0.08132	-0.00179	
18.28	-0.08142	-0.00174	
18.29	-0.08151	-0.00170	
18.30	-0.08160	-0.00165	
18.31	-0.08168	-0.00161	
18.32	-0.08174	-0.00153	
18.33	-0.08181	-0.00147	
18.34	-0.08191	-0.00144	
18.35	-0.08197	-0.00142	
18.36	-0.08203	-0.00141	
18.37	-0.08210	-0.00137	
18.38	-0.08218	-0.00132	
18.39	-0.08220	-0.00126	
18.40	-0.08224	-0.00121	
18.41	-0.08234	-0.00117	
18.42	-0.08239	-0.00113	
18.43	-0.08242	-0.00109	
18.44	-0.08247	-0.00107	
18.45	-0.08253	-0.00105	
18.46	-0.08258	-0.00102	
18.47	-0.08264	-0.00100	
18.48	-0.08271	-0.00097	
18.49	-0.08276	-0.00095	
18.50	-0.08279	-0.00094	
18.51	-0.08285	-0.00091	
18.52	-0.08291	-0.00085	
18.53	-0.08296	-0.00084	
18.54	-0.08301	-0.00085	
18.55	-0.08310	-0.00084	
18.56	-0.08316	-0.00081	
18.57	-0.08316	-0.00080	
18.58	-0.08323	-0.00079	
18.59	-0.08331	-0.00074	
18.60	-0.08332	-0.00070	
18.61	-0.08334	-0.00068	
18.62	-0.08343	-0.00064	
18.63	-0.08352	-0.00062	
18.64	-0.08356	-0.00057	
18.65	-0.08358	-0.00055	
18.66	-0.08364	-0.00053	
18.67	-0.08371	-0.00051	
18.68	-0.08373	-0.00050	
18.69	-0.08374	-0.00051	
18.70	-0.08378	-0.00052	
18.71	-0.08383	-0.00050	
18.72	-0.08390	-0.00046	
18.73	-0.08397	-0.00044	
18.74	-0.08403	-0.00046	
18.75	-0.08405	-0.00048	
18.76	-0.08413	-0.00047	
18.77	-0.08421	-0.00045	
18.78	-0.08423	-0.00046	
18.79	-0.08424	-0.00045	
18.80	-0.08426	-0.00045	
18.81	-0.08429	-0.00045	
18.82	-0.08434	-0.00044	
18.83	-0.08437	-0.00039	
18.84	-0.08439	-0.00035	
18.85	-0.08440	-0.00034	
18.86	-0.08444	-0.00036	
18.87	-0.08447	-0.00034	
18.88	-0.08449	-0.00029	
18.89	-0.08453	-0.00025	
18.90	-0.08461	-0.00025	
18.91	-0.08465	-0.00025	
18.92	-0.08465	-0.00022	
18.93	-0.08463	-0.00019	
18.94	-0.08463	-0.00018	
18.95	-0.08469	-0.00018	
18.96	-0.08474	-0.00014	
18.97	-0.08477	0.000	
18.98	-0.08477	0.000	
18.99	-0.08479	0.000	
19.00	-0.08481	0.000	
19.01	-0.08484	0.000	
19.02	-0.08487	0.000	
19.03	-0.08490	0.000	
19.04	-0.08494	0.000	
19.05	-0.08495	0.000	
19.06	-0.08497	0.000	
19.07	-0.08501	0.000	
19.08	-0.08500	0.000	
19.09	-0.08504	0.000	
19.10	-0.08508	0.00012	
19.11	-0.08510	0.00014	
19.12	-0.08510	0.00016	
19.13	-0.08511	0.00018	
19.14	-0.08511	0.00020	
19.15	-0.08513	0.00021	
19.16	-0.08516	0.00023	
19.17	-0.08517	0.00027	
19.18	-0.08518	0.00030	
19.19	-0.08524	0.00031	
19.20	-0.08530	0.00031	
19.21	-0.08533	0.00033	
19.22	-0.08536	0.00038	
19.23	-0.08536	0.00042	
19.24	-0.08538	0.00041	
19.25	-0.08541	0.00040	
19.26	-0.08542	0.00040	
19.27	-0.08543	0.00042	
19.28	-0.08546	0.00045	
19.29	-0.08547	0.00046	
19.30	-0.08545	0.00047	
19.31	-0.08546	0.00047	
19.32	-0.08550	0.00048	
19.33	-0.08551	0.00049	
19.34	-0.08555	0.00048	
19.35	-0.08557	0.00050	
19.36	-0.08558	0.00053	
19.37	-0.08561	0.00057	
19.38	-0.08565	0.00059	
19.39	-0.08567	0.00059	
19.40	-0.08567	0.00060	
19.41	-0.08565	0.00061	
19.42	-0.08567	0.00062	
19.43	-0.08568	0.00060	
19.44	-0.08568	0.00061	
19.45	-0.08572	0.00064	
19.46	-0.08574	0.00066	
19.47	-0.08574	0.00067	
19.48	-0.08573	0.00068	
19.49	-0.08576	0.00068	
19.50	-0.08577	0.00068	
19.51	-0.08580	0.00068	
19.52	-0.08582	0.00068	
19.53	-0.08582	0.00071	
19.54	-0.08581	0.00073	
19.55	-0.08582	0.00072	
19.56	-0.08585	0.00071	
19.57	-0.08588	0.00073	
19.58	-0.08589	0.00073	
19.59	-0.08591	0.00072	
19.60	-0.08594	0.00074	
19.61	-0.08594	0.00077	
19.62	-0.08594	0.00079	
19.63	-0.08593	0.00079	
19.64	-0.08596	0.00080	
19.65	-0.08600	0.00080	
19.66	-0.08600	0.00079	
19.67	-0.08600	0.00081	
19.68	-0.08599	0.00081	
19.69	-0.08599	0.00082	
19.70	-0.08602	0.00084	
19.71	-0.08606	0.00084	
19.72	-0.08607	0.00085	
19.73	-0.08605	0.00088	
19.74	-0.08607	0.00088	
19.75	-0.08610	0.00089	
19.76	-0.08612	0.00090	
19.77	-0.08613	0.00093	
19.78	-0.08616	0.00095	
19.79	-0.08619	0.00097	
19.80	-0.08620	0.00099	
19.81	-0.08621	0.00102	
19.82	-0.08622	0.00103	
19.83	-0.08624	0.00101	
19.84	-0.08624	0.00101	
19.85	-0.08623	0.00103	
19.86	-0.08623	0.00107	
19.87	-0.08624	0.00107	
19.88	-0.08628	0.00107	
19.89	-0.08631	0.00108	
19.90	-0.08630	0.00110	
19.91	-0.08631	0.00113	
19.92	-0.08635	0.00114	
19.93	-0.08634	0.00113	
19.94	-0.08634	0.00112	
19.95	-0.08637	0.00111	
19.96	-0.08638	0.00112	
19.97	-0.08637	0.00115	
19.98	-0.08639	0.00119	
19.99	-0.08642	0.00122	
20.00	-0.08643	0.00123	
20.01	-0.08644	0.00124	
20.02	-0.08644	0.00127	
20.03	-0.08644	0.00130	
20.04	-0.08645	0.00132	
20.05	-0.08646	0.00136	
20.06	-0.08647	0.00138	
20.07	-0.08649	0.00138	
20.08	-0.08652	0.00138	
20.09	-0.08652	0.00139	
20.10	-0.08652	0.00141	
20.11	-0.08655	0.00143	
20.12	-0.08657	0.00147	
20.13	-0.08655	0.00151	
20.14	-0.08656	0.00153	
20.15	-0.08659	0.00154	
20.16	-0.08659	0.00153	
20.17	-0.08655	0.00154	
20.18	-0.08652	0.00155	
20.19	-0.08653	0.00157	
20.20	-0.08658	0.00159	
20.21	-0.08660	0.00160	
20.22	-0.08661	0.00162	
20.23	-0.08663	0.00163	
20.24	-0.08664	0.00163	
20.25	-0.08664	0.00166	
20.26	-0.08662	0.00166	
20.27	-0.08663	0.00169	
20.28	-0.08666	0.00172	
20.29	-0.08664	0.00174	
20.30	-0.08666	0.00175	
20.31	-0.08670	0.00174	
20.32	-0.08669	0.00174	
20.33	-0.08667	0.00175	
20.34	-0.08667	0.00178	
20.35	-0.08670	0.00183	
20.36	-0.08674	0.00187	
20.37	-0.08677	0.00188	
20.38	-0.08675	0.00190	
20.39	-0.08672	0.00192	
20.40	-0.08672	0.00196	
20.41	-0.08673	0.00198	
20.42	-0.08675	0.00199	
20.43	-0.08676	0.00198	
20.44	-0.08677	0.00198	
20.45	-0.08675	0.00201	
20.46	-0.08676	0.00206	
20.47	-0.08677	0.00208	
20.48	-0.08678	0.00208	
20.49	-0.08679	0.00211	
20.50	-0.08681	0.00214	
20.51	-0.08681	0.00215	
20.52	-0.08678	0.00215	
20.53	-0.08677	0.00217	
20.54	-0.08679	0.00219	
20.55	-0.08682	0.00222	
20.56	-0.08685	0.00223	
20.57	-0.08687	0.00222	
20.58	-0.08689	0.00223	
20.59	-0.08691	0.00225	
20.60	-0.08693	0.00228	
20.61	-0.08690	0.00231	
20.62	-0.08686	0.00233	
20.63	-0.08687	0.00235	
20.64	-0.08689	0.00234	
20.65	-0.08687	0.00236	
20.66	-0.08689	0.00240	
20.67	-0.08697	0.00243	
20.68	-0.08698	0.00244	
20.69	-0.08695	0.00244	
20.70	-0.08694	0.00247	
20.71	-0.08697	0.00251	
20.72	-0.08700	0.00256	
20.73	-0.08700	0.00257	
20.74	-0.08696	0.00257	
20.75	-0.08695	0.00258	
20.76	-0.08701	0.00258	
20.77	-0.08700	0.00259	
20.78	-0.08699	0.00262	
20.79	-0.08702	0.00265	
20.80	-0.08703	0.00268	
20.81	-0.08703	0.00268	
20.82	-0.08702	0.00270	
20.83	-0.08700	0.00272	
20.84	-0.08699	0.00272	
20.85	-0.08701	0.00273	
20.86	-0.08705	0.00275	
20.87	-0.08712	0.00277	
20.88	-0.08713	0.00281	
20.89	-0.08708	0.00284	
20.90	-0.08705	0.00286	
20.91	-0.08706	0.00288	
20.92	-0.08708	0.00291	
20.93	-0.08710	0.00292	
20.94	-0.08711	0.00295	
20.95	-0.08709	0.00299	
20.96	-0.08711	0.00300	
20.97	-0.08712	0.00302	
20.98	-0.08712	0.00304	
20.99	-0.08714	0.00306	
21.00	-0.08714	0.00308	
21.01	-0.08714	0.00308	
21.02	-0.08714	0.00309	
21.03	-0.08716	0.00309	
21.04	-0.08718	0.00308	
21.05	-0.08718	0.00309	
21.06	-0.08716	0.00310	
21.07	-0.08716	0.00312	
21.08	-0.08715	0.00311	
21.09	-0.08715	0.00311	
21.10	-0.08714	0.00312	
21.11	-0.08714	0.00315	
21.12	-0.08716	0.00319	
21.13	-0.08718	0.00321	
21.14	-0.08719	0.00320	
21.15	-0.08723	0.00321	
21.16	-0.08726	0.00322	
21.17	-0.08725	0.00325	
21.18	-0.08726	0.00324	
21.19	-0.08728	0.00323	
21.20	-0.08728	0.00323	
21.21	-0.08725	0.00323	
21.22	-0.08724	0.00324	
21.23	-0.08724	0.00326	
21.24	-0.08724	0.00326	
21.25	-0.08725	0.00328	
21.26	-0.08726	0.00331	
21.27	-0.08728	0.00334	
21.28	-0.08729	0.00335	
21.29	-0.08729	0.00337	
21.30	-0.08728	0.00336	
21.31	-0.08729	0.00335	
21.32	-0.08728	0.00336	
21.33	-0.08729	0.00337	
21.34	-0.08732	0.00341	
21.35	-0.08736	0.00344	
21.36	-0.08741	0.00344	
21.37	-0.08741	0.00342	
21.38	-0.08737	0.00344	
21.39	-0.08736	0.00346	
21.40	-0.08736	0.00347	
21.41	-0.08738	0.00348	
21.42	-0.08743	0.00349	
21.43	-0.08747	0.00352	
21.44	-0.08742	0.00353	
21.45	-0.08740	0.00354	
21.46	-0.08742	0.00355	
21.47	-0.08741	0.00355	
21.48	-0.08740	0.00356	
21.49	-0.08742	0.00356	
21.50	-0.08745	0.00359	
21.51	-0.08747	0.00364	
21.52	-0.08744	0.00369	
21.53	-0.08744	0.00370	
21.54	-0.08745	0.00366	
21.55	-0.08746	0.00366	
21.56	-0.08747	0.00368	
21.57	-0.08746	0.00370	
21.58	-0.08743	0.00372	
21.59	-0.08741	0.00376	
21.60	-0.08743	0.00375	
21.61	-0.08747	0.00373	
21.62	-0.08747	0.00373	
21.63	-0.08744	0.00377	
21.64	-0.08746	0.00378	
21.65	-0.08749	0.00379	
21.66	-0.08752	0.00381	
21.67	-0.08754	0.00384	
21.68	-0.08755	0.00385	
21.69	-0.08752	0.00386	
21.70	-0.08752	0.00386	
21.71	-0.08755	0.00388	
21.72	-0.08757	0.00388	
21.73	-0.08755	0.00388	
21.74	-0.08755	0.00389	
21.75	-0.08759	0.00391	
21.76	-0.08760	0.00393	
21.77	-0.08758	0.00396	
21.78	-0.08758	0.00397	
21.79	-0.08758	0.00398	
21.80	-0.08760	0.00398	
21.81	-0.08761	0.00399	
21.82	-0.08758	0.00403	
21.83	-0.08757	0.00405	
21.84	-0.08758	0.00405	
21.85	-0.08761	0.00404	
21.86	-0.08765	0.00406	
21.87	-0.08766	0.00408	
21.88	-0.08766	0.00411	
21.89	-0.08765	0.00412	
21.90	-0.08764	0.00414	
21.91	-0.08763	0.00414	
21.92	-0.08767	0.00416	
21.93	-0.08769	0.00417	
21.94	-0.08769	0.00419	
21.95	-0.08768	0.00421	
21.96	-0.08766	0.00422	
21.97	-0.08766	0.00423	
21.98	-0.08766	0.00424	
21.99	-0.08767	0.00424	
22.00	-0.08773	0.00425	
22.01	-0.08773	0.00427	
22.02	-0.08772	0.00428	
22.03	-0.08769	0.00430	
22.04	-0.08771	0.00430	
22.05	-0.08772	0.00430	
22.06	-0.08771	0.00428	
22.07	-0.08772	0.00432	
22.08	-0.08775	0.00435	
22.09	-0.08773	0.00436	
22.10	-0.08772	0.00437	
22.11	-0.08771	0.00438	
22.12	-0.08773	0.00439	
22.13	-0.08776	0.00441	
22.14	-0.08777	0.00443	
22.15	-0.08776	0.00445	
22.16	-0.08776	0.00447	
22.17	-0.08778	0.00448	
22.18	-0.08779	0.00448	
22.19	-0.08781	0.00448	
22.20	-0.08781	0.00449	
22.21	-0.08781	0.00452	
22.22	-0.08780	0.00455	
22.23	-0.08778	0.00457	
22.24	-0.08778	0.00456	
22.25	-0.08778	0.00454	
22.26	-0.08776	0.00454	
22.27	-0.08780	0.00455	
22.28	-0.08780	0.00457	
22.29	-0.08780	0.00456	
22.30	-0.08782	0.00456	
22.31	-0.08784	0.00457	
22.32	-0.08784	0.00458	
22.33	-0.08786	0.00459	
22.34	-0.08787	0.00461	
22.35	-0.08788	0.00462	
22.36	-0.08789	0.00462	
22.37	-0.08789	0.00462	
22.38	-0.08789	0.00463	
22.39	-0.08786	0.00467	
22.40	-0.08784	0.00467	
22.41	-0.08784	0.00465	
22.42	-0.08784	0.00464	
22.43	-0.08785	0.00464	
22.44	-0.08785	0.00466	
22.45	-0.08786	0.00467	
22.46	-0.08788	0.00466	
22.47	-0.08790	0.00466	
22.48	-0.08792	0.00467	
22.49	-0.08792	0.00467	
22.50	-0.08790	0.00468	
22.51	-0.08790	0.00470	
22.52	-0.08793	0.00471	
22.53	-0.08796	0.00471	
22.54	-0.08797	0.00472	
22.55	-0.08798	0.00473	
22.56	-0.08798	0.00474	
22.57	-0.08795	0.00477	
22.58	-0.08795	0.00475	
22.59	-0.08794	0.00475	
22.60	-0.08793	0.00477	
22.61	-0.08795	0.00479	
22.62	-0.08797	0.00480	
22.63	-0.08795	0.00482	
22.64	-0.08795	0.00484	
22.65	-0.08795	0.00483	
22.66	-0.08793	0.00483	
22.67	-0.08796	0.00483	
22.68	-0.08798	0.00484	
22.69	-0.08800	0.00486	
22.70	-0.08802	0.00490	
22.71	-0.08801	0.00491	
22.72	-0.08798	0.00490	
22.73	-0.08797	0.00489	
22.74	-0.08801	0.00488	
22.75	-0.08803	0.00490	
22.76	-0.08800	0.00493	
22.77	-0.08801	0.00495	
22.78	-0.08804	0.00498	
22.79	-0.08804	0.00498	
22.80	-0.08804	0.00498	
22.81	-0.08804	0.00499	
22.82	-0.08806	0.00500	
22.83	-0.08807	0.00502	
22.84	-0.08808	0.00502	
22.85	-0.08810	0.00504	
22.86	-0.08812	0.00506	
22.87	-0.08811	0.00506	
22.88	-0.08810	0.00508	
22.89	-0.08811	0.00509	
22.90	-0.08816	0.00509	
22.91	-0.08817	0.00511	
22.92	-0.08814	0.00513	
22.93	-0.08812	0.00514	
22.94	-0.08814	0.00514	
22.95	-0.08816	0.00513	
22.96	-0.08816	0.00514	
22.97	-0.08816	0.00517	
22.98	-0.08815	0.00519	
22.99	-0.08815	0.00520	
23.00	-0.08813	0.00520	
23.01	-0.08812	0.00522	
23.02	-0.08813	0.00524	
23.03	-0.08817	0.00525	
23.04	-0.08821	0.00528	
23.05	-0.08821	0.00533	
23.06	-0.08820	0.00534	
23.07	-0.08820	0.00533	
23.08	-0.08821	0.00533	
23.09	-0.08821	0.00535	
23.10	-0.08823	0.00537	
23.11	-0.08824	0.00539	
23.12	-0.08822	0.00539	
23.13	-0.08822	0.00541	
23.14	-0.08824	0.00543	
23.15	-0.08825	0.00544	
23.16	-0.08827	0.00543	
23.17	-0.08827	0.00547	
23.18	-0.08826	0.00551	
23.19	-0.08828	0.00551	
23.20	-0.08829	0.00549	
23.21	-0.08830	0.00549	
23.22	-0.08831	0.00555	
23.23	-0.08834	0.00557	
23.24	-0.08833	0.00559	
23.25	-0.08830	0.00562	
23.26	-0.08831	0.00563	
23.27	-0.08831	0.00564	
23.28	-0.08832	0.00566	
23.29	-0.08834	0.00569	
23.30	-0.08834	0.00571	
23.31	-0.08836	0.00571	
23.32	-0.08836	0.00574	
23.33	-0.08834	0.00574	
23.34	-0.08835	0.00575	
23.35	-0.08835	0.00576	
23.36	-0.08834	0.00576	
23.37	-0.08834	0.00578	
23.38	-0.08834	0.00581	
23.39	-0.08834	0.00585	
23.40	-0.08834	0.00588	
23.41	-0.08836	0.00588	
23.42	-0.08835	0.00589	
23.43	-0.08837	0.00592	
23.44	-0.08840	0.00595	
23.45	-0.08839	0.00597	
23.46	-0.08836	0.00599	
23.47	-0.08837	0.00604	
23.48	-0.08837	0.00606	
23.49	-0.08836	0.00605	
23.50	-0.08836	0.00606	
23.51	-0.08837	0.00608	
23.52	-0.08838	0.00608	
23.53	-0.08840	0.00608	
23.54	-0.08841	0.00610	
23.55	-0.08844	0.00610	
23.56	-0.08848	0.00612	
23.57	-0.08850	0.00615	
23.58	-0.08847	0.00617	
23.59	-0.08845	0.00618	
23.60	-0.08846	0.00619	
23.61	-0.08848	0.00621	
23.62	-0.08849	0.00623	
23.63	-0.08851	0.00624	
23.64	-0.08851	0.00625	
23.65	-0.08851	0.00627	
23.66	-0.08851	0.00630	
23.67	-0.08854	0.00633	
23.68	-0.08857	0.00635	
23.69	-0.08853	0.00635	
23.70	-0.08850	0.00636	
23.71	-0.08850	0.00638	
23.72	-0.08850	0.00638	
23.73	-0.08852	0.00638	
23.74	-0.08854	0.00642	
23.75	-0.08853	0.00645	
23.76	-0.08853	0.00645	
23.77	-0.08850	0.00648	
23.78	-0.08851	0.00653	
23.79	-0.08857	0.00652	
23.80	-0.08859	0.00650	
23.81	-0.08859	0.00652	
23.82	-0.08857	0.00656	
23.83	-0.08857	0.00658	
23.84	-0.08859	0.00660	
23.85	-0.08860	0.00663	
23.86	-0.08860	0.00665	
23.87	-0.08859	0.00670	
23.88	-0.08861	0.00671	
23.89	-0.08862	0.00670	
23.90	-0.08862	0.00672	
23.91	-0.08860	0.00675	
23.92	-0.08860	0.00676	
23.93	-0.08861	0.00678	
23.94	-0.08863	0.00680	
23.95	-0.08863	0.00683	
23.96	-0.08860	0.00684	
23.97	-0.08860	0.00683	
23.98	-0.08862	0.00686	
23.99	-0.08864	0.00691	
24.00	-0.08864	0.00691	
24.01	-0.08866	0.00690	
24.02	-0.08864	0.00693	
24.03	-0.08864	0.00695	
24.04	-0.08865	0.00694	
24.05	-0.08866	0.00692	
24.06	-0.08866	0.00695	
24.07	-0.08866	0.00698	
24.08	-0.08867	0.00699	
24.09	-0.08868	0.00700	
24.10	-0.08871	0.00703	
24.11	-0.08874	0.00704	
24.12	-0.08874	0.00706	
24.13	-0.08871	0.00707	
24.14	-0.08870	0.00707	
24.15	-0.08870	0.00710	
24.16	-0.08870	0.00711	
24.17	-0.08869	0.00711	
24.18	-0.08871	0.00713	
24.19	-0.08870	0.00714	
24.20	-0.08868	0.00714	
24.21	-0.08871	0.00714	
24.22	-0.08875	0.00719	
24.23	-0.08878	0.00725	
24.24	-0.08879	0.00727	
24.25	-0.08879	0.00725	
24.26	-0.08880	0.00725	
24.27	-0.08879	0.00727	
24.28	-0.08876	0.00727	
24.29	-0.08874	0.00729	
24.30	-0.08876	0.00733	
24.31	-0.08876	0.00735	
24.32	-0.08877	0.00735	
24.33	-0.08880	0.00739	
24.34	-0.08881	0.00742	
24.35	-0.08879	0.00744	
24.36	-0.08879	0.00745	
24.37	-0.08882	0.00745	
24.38	-0.08881	0.00747	
24.39	-0.08881	0.00750	
24.40	-0.08883	0.00752	
24.41	-0.08883	0.00752	
24.42	-0.08883	0.00751	
24.43	-0.08884	0.00751	
24.44	-0.08885	0.00753	
24.45	-0.08885	0.00756	
24.46	-0.08885	0.00758	
24.47	-0.08884	0.00762	
24.48	-0.08885	0.00763	
24.49	-0.08885	0.00763	
24.50	-0.08884	0.00763	
24.51	-0.08885	0.00764	
24.52	-0.08883	0.00766	
24.53	-0.08880	0.00768	
24.54	-0.08883	0.00769	
24.55	-0.08885	0.00771	
24.56	-0.08886	0.00771	
24.57	-0.08889	0.00771	
24.58	-0.08891	0.00774	
24.59	-0.08890	0.00778	
24.60	-0.08892	0.00778	
24.61	-0.08893	0.00778	
24.62	-0.08894	0.00780	
24.63	-0.08892	0.00782	
24.64	-0.08890	0.00784	
24.65	-0.08893	0.00785	
24.66	-0.08895	0.00786	
24.67	-0.08895	0.00787	
24.68	-0.08895	0.00788	
24.69	-0.08892	0.00788	
24.70	-0.08890	0.00791	
24.71	-0.08891	0.00794	
24.72	-0.08892	0.00796	
24.73	-0.08894	0.00798	
24.74	-0.08895	0.00801	
24.75	-0.08894	0.00802	
24.76	-0.08893	0.00804	
24.77	-0.08895	0.00806	
24.78	-0.08897	0.00808	
24.79	-0.08897	0.00810	
24.80	-0.08898	0.00814	
24.81	-0.08899	0.00814	
24.82	-0.08901	0.00814	
24.83	-0.08901	0.00814	
24.84	-0.08901	0.00815	
24.85	-0.08902	0.00820	
24.86	-0.08906	0.00821	
24.87	-0.08906	0.00824	
24.88	-0.08905	0.00824	
24.89	-0.08904	0.00823	
24.90	-0.08904	0.00824	
24.91	-0.08905	0.00830	
24.92	-0.08904	0.00833	
24.93	-0.08902	0.00833	
24.94	-0.08903	0.00835	
24.95	-0.08905	0.00838	
24.96	-0.08903	0.00839	
24.97	-0.08902	0.00840	
24.98	-0.08906	0.00841	
24.99	-0.08905	0.00843	
25.00	-0.08904	0.00844	
25.01	-0.08907	0.00844	
25.02	-0.08908	0.00845	
25.03	-0.08909	0.00848	
25.04	-0.08908	0.00851	
25.05	-0.08909	0.00852	
25.06	-0.08912	0.00853	
25.07	-0.08911	0.00854	
25.08	-0.08910	0.00855	
25.09	-0.08910	0.00859	
25.10	-0.08910	0.00864	
25.11	-0.08910	0.00866	
25.12	-0.08909	0.00863	
25.13	-0.08911	0.00864	
25.14	-0.08916	0.00866	
25.15	-0.08917	0.00868	
25.16	-0.08915	0.00869	
25.17	-0.08915	0.00869	
25.18	-0.08915	0.00873	
25.19	-0.08914	0.00877	
25.20	-0.08914	0.00875	
25.21	-0.08914	0.00875	
25.22	-0.08916	0.00878	
25.23	-0.08917	0.00882	
25.24	-0.08917	0.00883	
25.25	-0.08919	0.00885	
25.26	-0.08918	0.00887	
25.27	-0.08920	0.00890	
25.28	-0.08920	0.00892	
25.29	-0.08922	0.00894	
25.30	-0.08923	0.00896	
25.31	-0.08921	0.00898	
25.32	-0.08921	0.00901	
25.33	-0.08921	0.00903	
25.34	-0.08923	0.00906	
25.35	-0.08926	0.00907	
25.36	-0.08928	0.00911	
25.37	-0.08927	0.00915	
25.38	-0.08927	0.00916	
25.39	-0.08927	0.00916	
25.40	-0.08929	0.00918	
25.41	-0.08930	0.00918	
25.42	-0.08929	0.00920	
25.43	-0.08929	0.00922	
25.44	-0.08928	0.00926	
25.45	-0.08929	0.00928	
25.46	-0.08929	0.00929	
25.47	-0.08929	0.00932	
25.48	-0.08931	0.00935	
25.49	-0.08930	0.00939	
25.50	-0.08926	0.00942	
25.51	-0.08927	0.00943	
25.52	-0.08930	0.00945	
25.53	-0.08929	0.00946	
25.54	-0.08929	0.00947	
25.55	-0.08932	0.00950	
25.56	-0.08934	0.00954	
25.57	-0.08935	0.00957	
25.58	-0.08936	0.00959	
25.59	-0.08938	0.00960	
25.60	-0.08937	0.00964	
25.61	-0.08935	0.00967	
25.62	-0.08933	0.00969	
25.63	-0.08936	0.00973	
25.64	-0.08938	0.00976	
25.65	-0.08938	0.00976	
25.66	-0.08938	0.00978	
25.67	-0.08938	0.00979	
25.68	-0.08941	0.00980	
25.69	-0.08941	0.00980	
25.70	-0.08937	0.00981	
25.71	-0.08933	0.00983	
25.72	-0.08935	0.00985	
25.73	-0.08939	0.00987	
25.74	-0.08941	0.00990	
25.75	-0.08942	0.00992	
25.76	-0.08942	0.00993	
25.77	-0.08943	0.00994	
25.78	-0.08944	0.00996	
25.79	-0.08944	0.01001	
25.80	-0.08942	0.01007	
25.81	-0.08942	0.01010	
25.82	-0.08945	0.01008	
25.83	-0.08948	0.01007	
25.84	-0.08949	0.01008	
25.85	-0.08948	0.01009	
25.86	-0.08946	0.01012	
25.87	-0.08943	0.01015	
25.88	-0.08943	0.01017	
25.89	-0.08945	0.01019	
25.90	-0.08947	0.01021	
25.91	-0.08946	0.01023	
25.92	-0.08946	0.01026	
25.93	-0.08949	0.01030	
25.94	-0.08952	0.01033	
25.95	-0.08954	0.01032	
25.96	-0.08956	0.01032	
25.97	-0.08954	0.01033	
25.98	-0.08954	0.01035	
25.99	-0.08953	0.01036	
26.00	-0.08954	0.01036	
26.01	-0.08956	0.01039	
26.02	-0.08955	0.01041	
26.03	-0.08955	0.01042	
26.04	-0.08956	0.01044	
26.05	-0.08956	0.01047	
26.06	-0.08956	0.01051	
26.07	-0.08955	0.01053	
26.08	-0.08955	0.01052	
26.09	-0.08956	0.01052	
26.10	-0.08958	0.01055	
26.11	-0.08958	0.01055	
26.12	-0.08959	0.01055	
26.13	-0.08958	0.01057	
26.14	-0.08956	0.01057	
26.15	-0.08957	0.01059	
26.16	-0.08959	0.01062	
26.17	-0.08961	0.01066	
26.18	-0.08962	0.01068	
26.19	-0.08961	0.01069	
26.20	-0.08959	0.01072	
26.21	-0.08959	0.01075	
26.22	-0.08963	0.01077	
26.23	-0.08967	0.01077	
26.24	-0.08967	0.01078	
26.25	-0.08966	0.01080	
26.26	-0.08963	0.01083	
26.27	-0.08963	0.01084	
26.28	-0.08968	0.01084	
26.29	-0.08970	0.01085	
26.30	-0.08970	0.01087	
26.31	-0.08969	0.01089	
26.32	-0.08970	0.01089	
26.33	-0.08967	0.01089	
26.34	-0.08969	0.01092	
26.35	-0.08969	0.01096	
26.36	-0.08969	0.01100	
26.37	-0.08973	0.01101	
26.38	-0.08975	0.01102	
26.39	-0.08977	0.01103	
26.40	-0.08976	0.01103	
26.41	-0.08974	0.01103	
26.42	-0.08975	0.01108	
26.43	-0.08974	0.01111	
26.44	-0.08975	0.01113	
26.45	-0.08975	0.01113	
26.46	-0.08975	0.01113	
26.47	-0.08977	0.01116	
26.48	-0.08980	0.01120	
26.49	-0.08982	0.01120	
26.50	-0.08983	0.01120	
26.51	-0.08984	0.01121	
26.52	-0.08984	0.01124	
26.53	-0.08981	0.01125	
26.54	-0.08981	0.01128	
26.55	-0.08985	0.01130	
26.56	-0.08989	0.01131	
26.57	-0.08990	0.01131	
26.58	-0.08985	0.01133	
26.59	-0.08983	0.01134	
26.60	-0.08984	0.01137	
26.61	-0.08985	0.01137	
26.62	-0.08986	0.01138	
26.63	-0.08990	0.01139	
26.64	-0.08993	0.01140	
26.65	-0.08991	0.01142	
26.66	-0.08994	0.01144	
26.67	-0.08996	0.01145	
26.68	-0.08994	0.01147	
26.69	-0.08993	0.01147	
26.70	-0.08993	0.01147	
26.71	-0.08998	0.01148	
26.72	-0.08999	0.01151	
26.73	-0.08997	0.01152	
26.74	-0.08994	0.01153	
26.75	-0.08995	0.01154	
26.76	-0.08997	0.01155	
26.77	-0.08996	0.01158	
26.78	-0.08994	0.01161	
26.79	-0.08995	0.01164	
26.80	-0.08997	0.01168	
26.81	-0.08998	0.01169	
26.82	-0.09001	0.01171	
26.83	-0.09003	0.01171	
26.84	-0.09000	0.01173	
26.85	-0.08997	0.01175	
26.86	-0.08999	0.01173	
26.87	-0.09002	0.01172	
26.88	-0.09003	0.01173	
26.89	-0.09004	0.01175	
26.90	-0.09009	0.01177	
26.91	-0.09009	0.01178	
26.92	-0.09009	0.01179	
26.93	-0.09009	0.01180	
26.94	-0.09005	0.01181	
26.95	-0.09004	0.01183	
26.96	-0.09006	0.01186	
26.97	-0.09009	0.01187	
26.98	-0.09013	0.01187	
26.99	-0.09017	0.01188	
27.00	-0.09018	0.01190	
27.01	-0.09015	0.01195	
27.02	-0.09014	0.01202	
27.03	-0.09015	0.01205	
27.04	-0.09015	0.01205	
27.05	-0.09014	0.01204	
27.06	-0.09013	0.01208	
27.07	-0.09015	0.01212	
27.08	-0.09017	0.01214	
27.09	-0.09016	0.01215	
27.10	-0.09015	0.01217	
27.11	-0.09016	0.01221	
27.12	-0.09019	0.01221	
27.13	-0.09019	0.01220	
27.14	-0.09017	0.01222	
27.15	-0.09019	0.01229	
27.16	-0.09022	0.01233	
27.17	-0.09024	0.01234	
27.18	-0.09025	0.01236	
27.19	-0.09026	0.01239	
27.20	-0.09026	0.01241	
27.21	-0.09026	0.01243	
27.22	-0.09026	0.01245	
27.23	-0.09025	0.01249	
27.24	-0.09025	0.01252	
27.25	-0.09027	0.01253	
27.26	-0.09028	0.01253	
27.27	-0.09028	0.01256	
27.28	-0.09029	0.01263	
27.29	-0.09027	0.01270	
27.30	-0.09026	0.01273	
27.31	-0.09028	0.01273	
27.32	-0.09030	0.01274	
27.33	-0.09031	0.01274	
27.34	-0.09035	0.01276	
27.35	-0.09038	0.01279	
27.36	-0.09040	0.01283	
27.37	-0.09038	0.01285	
27.38	-0.09036	0.01290	
27.39	-0.09038	0.01295	
27.40	-0.09039	0.01297	
27.41	-0.09037	0.01300	
27.42	-0.09036	0.01305	
27.43	-0.09041	0.01309	
27.44	-0.09045	0.01312	
27.45	-0.09046	0.01313	
27.46	-0.09046	0.01314	
27.47	-0.09046	0.01315	
27.48	-0.09043	0.01318	
27.49	-0.09041	0.01320	
27.50	-0.09040	0.01322	
27.51	-0.09042	0.01326	
27.52	-0.09045	0.01327	
27.53	-0.09049	0.01330	
27.54	-0.09052	0.01335	
27.55	-0.09051	0.01338	
27.56	-0.09048	0.01339	
27.57	-0.09048	0.01340	
27.58	-0.09050	0.01342	
27.59	-0.09050	0.01344	
27.60	-0.09047	0.01345	
27.61	-0.09050	0.01348	
27.62	-0.09054	0.01350	
27.63	-0.09056	0.01352	
27.64	-0.09056	0.01355	
27.65	-0.09054	0.01357	
27.66	-0.09051	0.01359	
27.67	-0.09051	0.01362	
27.68	-0.09055	0.01364	
27.69	-0.09054	0.01362	
27.70	-0.09051	0.01361	
27.71	-0.09054	0.01363	
27.72	-0.09059	0.01368	
27.73	-0.09062	0.01372	
27.74	-0.09064	0.01375	
27.75	-0.09063	0.01378	
27.76	-0.09061	0.01379	
27.77	-0.09059	0.01381	
27.78	-0.09061	0.01385	
27.79	-0.09060	0.01386	
27.80	-0.09059	0.01386	
27.81	-0.09064	0.01386	
27.82	-0.09066	0.01390	
27.83	-0.09066	0.01393	
27.84	-0.09067	0.01393	
27.85	-0.09064	0.01395	
27.86	-0.09063	0.01399	
27.87	-0.09064	0.01402	
27.88	-0.09067	0.01402	
27.89	-0.09069	0.01402	
27.90	-0.09071	0.01403	
27.91	-0.09071	0.01407	
27.92	-0.09071	0.01413	
27.93	-0.09074	0.01414	
27.94	-0.09074	0.01414	
27.95	-0.09074	0.01416	
27.96	-0.09074	0.01417	
27.97	-0.09075	0.01417	
27.98	-0.09077	0.01418	
27.99	-0.09077	0.01420	
28.00	-0.09077	0.01422	
28.01	-0.09080	0.01423	
28.02	-0.09082	0.01424	
28.03	-0.09084	0.01426	
28.04	-0.09086	0.01430	
28.05	-0.09085	0.01432	
28.06	-0.09087	0.01434	
28.07	-0.09088	0.01440	
28.08	-0.09087	0.01443	
28.09	-0.09085	0.01442	
28.10	-0.09084	0.01443	
28.11	-0.09086	0.01444	
28.12	-0.09088	0.01446	
28.13	-0.09087	0.01448	
28.14	-0.09089	0.01451	
28.15	-0.09090	0.01452	
28.16	-0.09091	0.01453	
28.17	-0.09091	0.01456	
28.18	-0.09093	0.01458	
28.19	-0.09093	0.01459	
28.20	-0.09091	0.01459	
28.21	-0.09092	0.01459	
28.22	-0.09094	0.01460	
28.23	-0.09096	0.01463	
28.24	-0.09096	0.01468	
28.25	-0.09098	0.01468	
28.26	-0.09100	0.01467	
28.27	-0.09099	0.01469	
28.28	-0.09100	0.01473	
28.29	-0.09100	0.01476	
28.30	-0.09100	0.01478	
28.31	-0.09098	0.01481	
28.32	-0.09098	0.01483	
28.33	-0.09100	0.01483	
28.34	-0.09101	0.01483	
28.35	-0.09104	0.01485	
28.36	-0.09107	0.01486	
28.37	-0.09106	0.01485	
28.38	-0.09103	0.01488	
28.39	-0.09108	0.01492	
28.40	-0.09112	0.01493	
28.41	-0.09112	0.01492	
28.42	-0.09115	0.01491	
28.43	-0.09117	0.01494	
28.44	-0.09113	0.01498	
28.45	-0.09112	0.01499	
28.46	-0.09111	0.01500	
28.47	-0.09108	0.01500	
28.48	-0.09111	0.01504	
28.49	-0.09114	0.01509	
28.50	-0.09117	0.01510	
28.51	-0.09118	0.01509	
28.52	-0.09116	0.01509	
28.53	-0.09114	0.01511	
28.54	-0.09114	0.01512	
28.55	-0.09118	0.01511	
28.56	-0.09121	0.01513	
28.57	-0.09122	0.01517	
28.58	-0.09123	0.01518	
28.59	-0.09123	0.01521	
28.60	-0.09123	0.01524	
28.61	-0.09127	0.01523	
28.62	-0.09129	0.01521	
28.63	-0.09128	0.01520	
28.64	-0.09130	0.01522	
28.65	-0.09130	0.01525	
28.66	-0.09130	0.01526	
28.67	-0.09131	0.01527	
28.68	-0.09132	0.01528	
28.69	-0.09132	0.01530	
28.70	-0.09133	0.01532	
28.71	-0.09135	0.01535	
28.72	-0.09137	0.01537	
28.73	-0.09136	0.01536	
28.74	-0.09135	0.01535	
28.75	-0.09137	0.01534	
28.76	-0.09141	0.01535	
28.77	-0.09140	0.01538	
28.78	-0.09141	0.01539	
28.79	-0.09144	0.01541	
28.80	-0.09145	0.01544	
28.81	-0.09147	0.01545	
28.82	-0.09148	0.01546	
28.83	-0.09148	0.01546	
28.84	-0.09144	0.01546	
28.85	-0.09142	0.01546	
28.86	-0.09144	0.01547	
28.87	-0.09147	0.01549	
28.88	-0.09150	0.01550	
28.89	-0.09151	0.01550	
28.90	-0.09152	0.01553	
28.91	-0.09154	0.01554	
28.92	-0.09155	0.01553	
28.93	-0.09155	0.01553	
28.94	-0.09153	0.01553	
28.95	-0.09149	0.01555	
28.96	-0.09150	0.01557	
28.97	-0.09154	0.01559	
28.98	-0.09156	0.01558	
28.99	-0.09159	0.01559	
29.00	-0.09158	0.01561	
29.01	-0.09156	0.01562	
29.02	-0.09156	0.01563	
29.03	-0.09158	0.01564	
29.04	-0.09160	0.01565	
29.05	-0.09162	0.01565	
29.06	-0.09164	0.01566	
29.07	-0.09166	0.01564	
29.08	-0.09170	0.01563	
29.09	-0.09174	0.01563	
29.10	-0.09177	0.01568	
29.11	-0.09177	0.01570	
29.12	-0.09175	0.01570	
29.13	-0.09175	0.01569	
29.14	-0.09177	0.01569	
29.15	-0.09178	0.01573	
29.16	-0.09177	0.01578	
29.17	-0.09178	0.01579	
29.18	-0.09182	0.01578	
29.19	-0.09182	0.01578	
29.20	-0.09181	0.01582	
29.21	-0.09184	0.01584	
29.22	-0.09187	0.01583	
29.23	-0.09189	0.01583	
29.24	-0.09189	0.01586	
29.25	-0.09188	0.01588	
29.26	-0.09188	0.01590	
29.27	-0.09190	0.01591	
29.28	-0.09191	0.01593	
29.29	-0.09190	0.01595	
29.30	-0.09189	0.01596	
29.31	-0.09191	0.01600	
29.32	-0.09192	0.01602	
29.33	-0.09194	0.01603	
29.34	-0.09199	0.01605	
29.35	-0.09199	0.01606	
29.36	-0.09197	0.01608	
29.37	-0.09199	0.01610	
29.38	-0.09204	0.01611	
29.39	-0.09206	0.01613	
29.40	-0.09204	0.01615	
29.41	-0.09204	0.01618	
29.42	-0.09207	0.01620	
29.43	-0.09207	0.01619	
29.44	-0.09203	0.01621	
29.45	-0.09207	0.01623	
29.46	-0.09209	0.01626	
29.47	-0.09210	0.01628	
29.48	-0.09211	0.01629	
29.49	-0.09211	0.01630	
29.50	-0.09209	0.01630	
29.51	-0.09212	0.01633	
29.52	-0.09218	0.01637	
29.53	-0.09218	0.01641	
29.54	-0.09216	0.01641	
29.55	-0.09218	0.01639	
29.56	-0.09221	0.01639	
29.57	-0.09223	0.01641	
29.58	-0.09225	0.01644	
29.59	-0.09226	0.01648	
29.60	-0.09227	0.01650	
29.61	-0.09226	0.01652	
29.62	-0.09227	0.01654	
29.63	-0.09230	0.01655	
29.64	-0.09232	0.01657	
29.65	-0.09233	0.01658	
29.66	-0.09233	0.01660	
29.67	-0.09233	0.01662	
29.68	-0.09233	0.01662	
29.69	-0.09233	0.01663	
29.70	-0.09232	0.01666	
29.71	-0.09231	0.01670	
29.72	-0.09233	0.01672	
29.73	-0.09233	0.01673	
29.74	-0.09237	0.01673	
29.75	-0.09241	0.01675	
29.76	-0.09243	0.01675	
29.77	-0.09246	0.01675	
29.78	-0.09248	0.01678	
29.79	-0.09251	0.01681	
29.80	-0.09247	0.01682	
29.81	-0.09246	0.01683	
29.82	-0.09248	0.01685	
29.83	-0.09249	0.01689	
29.84	-0.09251	0.01689	
29.85	-0.09255	0.01690	
29.86	-0.09256	0.01693	
29.87	-0.09250	0.01695	
29.88	-0.09250	0.01694	
29.89	-0.09255	0.01695	
29.90	-0.09258	0.01699	
29.91	-0.09261	0.01701	
29.92	-0.09261	0.01701	
29.93	-0.09258	0.01701	
29.94	-0.09261	0.01704	
29.95	-0.09263	0.01705	
29.96	-0.09265	0.01708	
29.97	-0.09266	0.01710	
29.98	-0.09270	0.01713	
29.99	-0.09272	0.01715	
30.00	-0.09273	0.01714	
30.01	-0.09274	0.01714	
30.02	-0.09272	0.01714	
30.03	-0.09268	0.01715	
30.04	-0.09268	0.01714	
30.05	-0.09273	0.01715	
30.06	-0.09276	0.01717	
30.07	-0.09275	0.01720	
30.08	-0.09274	0.01723	
30.09	-0.09276	0.01724	
30.10	-0.09279	0.01725	
30.11	-0.09282	0.01729	
30.12	-0.09282	0.01732	
30.13	-0.09280	0.01731	
30.14	-0.09280	0.01730	
30.15	-0.09281	0.01730	
30.16	-0.09284	0.01732	
30.17	-0.09289	0.01734	
30.18	-0.09293	0.01737	
30.19	-0.09290	0.01742	
30.20	-0.09287	0.01742	
30.21	-0.09290	0.01743	
30.22	-0.09292	0.01744	
30.23	-0.09292	0.01745	
30.24	-0.09291	0.01746	
30.25	-0.09290	0.01750	
30.26	-0.09295	0.01753	
30.27	-0.09300	0.01756	
30.28	-0.09301	0.01757	
30.29	-0.09302	0.01756	
30.30	-0.09303	0.01755	
30.31	-0.09302	0.01756	
30.32	-0.09301	0.01758	
30.33	-0.09304	0.01761	
30.34	-0.09307	0.01763	
30.35	-0.09308	0.01764	
30.36	-0.09307	0.01765	
30.37	-0.09306	0.01766	
30.38	-0.09306	0.01767	
30.39	-0.09308	0.01769	
30.40	-0.09312	0.01771	
30.41	-0.09314	0.01770	
30.42	-0.09316	0.01770	
30.43	-0.09318	0.01775	
30.44	-0.09319	0.01776	
30.45	-0.09320	0.01776	
30.46	-0.09320	0.01777	
30.47	-0.09322	0.01779	
30.48	-0.09324	0.01782	
30.49	-0.09324	0.01784	
30.50	-0.09327	0.01787	
30.51	-0.09329	0.01790	
30.52	-0.09325	0.01793	
30.53	-0.09325	0.01797	
30.54	-0.09328	0.01797	
30.55	-0.09330	0.01799	
30.56	-0.09333	0.01802	
30.57	-0.09334	0.01804	
30.58	-0.09336	0.01806	
30.59	-0.09335	0.01808	
30.60	-0.09336	0.01811	
30.61	-0.09337	0.01813	
30.62	-0.09340	0.01814	
30.63	-0.09344	0.01813	
30.64	-0.09345	0.01814	
30.65	-0.09346	0.01816	
30.66	-0.09345	0.01819	
30.67	-0.09345	0.01823	
30.68	-0.09345	0.01827	
30.69	-0.09347	0.01825	
30.70	-0.09349	0.01823	
30.71	-0.09349	0.01825	
30.72	-0.09348	0.01827	
30.73	-0.09348	0.01829	
30.74	-0.09351	0.01832	
30.75	-0.09353	0.01833	
30.76	-0.09354	0.01833	
30.77	-0.09357	0.01834	
30.78	-0.09360	0.01836	
30.79	-0.09360	0.01840	
30.80	-0.09360	0.01844	
30.81	-0.09362	0.01845	
30.82	-0.09367	0.01847	
30.83	-0.09367	0.01849	
30.84	-0.09363	0.01852	
30.85	-0.09364	0.01853	
30.86	-0.09367	0.01855	
30.87	-0.09370	0.01857	
30.88	-0.09370	0.01859	
30.89	-0.09370	0.01860	
30.90	-0.09371	0.01862	
30.91	-0.09371	0.01865	
30.92	-0.09373	0.01868	
30.93	-0.09375	0.01872	
30.94	-0.09373	0.01876	
30.95	-0.09374	0.01878	
30.96	-0.09376	0.01878	
30.97	-0.09376	0.01879	
30.98	-0.09377	0.01883	
30.99	-0.09378	0.01887	
31.00	-0.09383	0.01887	
31.01	-0.09386	0.01887	
31.02	-0.09386	0.01890	
31.03	-0.09386	0.01894	
31.04	-0.09388	0.01896	
31.05	-0.09388	0.01897	
31.06	-0.09388	0.01898	
31.07	-0.09389	0.01898	
31.08	-0.09390	0.01897	
31.09	-0.09392	0.01898	
31.10	-0.09393	0.01900	
31.11	-0.09395	0.01904	
31.12	-0.09397	0.01909	
31.13	-0.09399	0.01912	
31.14	-0.09398	0.01911	
31.15	-0.09396	0.01912	
31.16	-0.09396	0.01913	
31.17	-0.09397	0.01913	
31.18	-0.09399	0.01914	
31.19	-0.09402	0.01915	
31.20	-0.09405	0.01917	
31.21	-0.09407	0.01919	
31.22	-0.09408	0.01920	
31.23	-0.09408	0.01920	
31.24	-0.09410	0.01923	
31.25	-0.09410	0.01927	
31.26	-0.09409	0.01928	
31.27	-0.09414	0.01929	
31.28	-0.09420	0.01930	
31.29	-0.09422	0.01930	
31.30	-0.09423	0.01932	
31.31	-0.09423	0.01934	
31.32	-0.09422	0.01934	
31.33	-0.09421	0.01935	
31.34	-0.09419	0.01937	
31.35	-0.09423	0.01941	
31.36	-0.09427	0.01943	
31.37	-0.09427	0.01942	
31.38	-0.09430	0.01942	
31.39	-0.09435	0.01945	
31.40	-0.09436	0.01950	
31.41	-0.09435	0.01949	
31.42	-0.09437	0.01949	
31.43	-0.09439	0.01953	
31.44	-0.09439	0.01956	
31.45	-0.09438	0.01958	
31.46	-0.09438	0.01960	
31.47	-0.09441	0.01960	
31.48	-0.09442	0.01959	
31.49	-0.09442	0.01960	
31.50	-0.09445	0.01959	
31.51	-0.09449	0.01958	
31.52	-0.09452	0.01961	
31.53	-0.09451	0.01960	
31.54	-0.09453	0.01962	
31.55	-0.09455	0.01967	
31.56	-0.09457	0.01970	
31.57	-0.09461	0.01971	
31.58	-0.09461	0.01970	
31.59	-0.09460	0.01972	
31.60	-0.09460	0.01975	
31.61	-0.09466	0.01976	
31.62	-0.09469	0.01976	
31.63	-0.09468	0.01977	
31.64	-0.09467	0.01980	
31.65	-0.09467	0.01983	
31.66	-0.09466	0.01985	
31.67	-0.09465	0.01987	
31.68	-0.09466	0.01989	
31.69	-0.09471	0.01989	
31.70	-0.09475	0.01988	
31.71	-0.09476	0.01990	
31.72	-0.09474	0.01993	
31.73	-0.09473	0.01996	
31.74	-0.09475	0.01998	
31.75	-0.09479	0.02000	
31.76	-0.09482	0.02001	
31.77	-0.09483	0.02001	
31.78	-0.09481	0.02003	
31.79	-0.09482	0.02005	
31.80	-0.09485	0.02008	
31.81	-0.09489	0.02011	
31.82	-0.09489	0.02015	
31.83	-0.09488	0.02019	
31.84	-0.09488	0.02020	
31.85	-0.09488	0.02022	
31.86	-0.09492	0.02025	
31.87	-0.09497	0.02027	
31.88	-0.09499	0.02030	
31.89	-0.09496	0.02033	
31.90	-0.09498	0.02036	
31.91	-0.09502	0.02038	
31.92	-0.09504	0.02038	
31.93	-0.09503	0.02039	
31.94	-0.09505	0.02041	
31.95	-0.09506	0.02045	
31.96	-0.09509	0.02050	
31.97	-0.09508	0.02052	
31.98	-0.09508	0.02053	
31.99	-0.09510	0.02055	
32.00	-0.09513	0.02056	
32.01	-0.09515	0.02058	
32.02	-0.09517	0.02061	
32.03	-0.09519	0.02064	
32.04	-0.09520	0.02068	
32.05	-0.09523	0.02068	
32.06	-0.09523	0.02068	
32.07	-0.09524	0.02071	
32.08	-0.09528	0.02074	
32.09	-0.09529	0.02077	
32.10	-0.09530	0.02077	
32.11	-0.09534	0.02078	
32.12	-0.09535	0.02080	
32.13	-0.09536	0.02084	
32.14	-0.09538	0.02087	
32.15	-0.09540	0.02090	
32.16	-0.09540	0.02093	
32.17	-0.09540	0.02095	
32.18	-0.09545	0.02095	
32.19	-0.09550	0.02096	
32.20	-0.09555	0.02097	
32.21	-0.09558	0.02099	
32.22	-0.09556	0.02101	
32.23	-0.09552	0.02105	
32.24	-0.09552	0.02108	
32.25	-0.09555	0.02107	
32.26	-0.09560	0.02106	
32.27	-0.09565	0.02109	
32.28	-0.09566	0.02110	
32.29	-0.09564	0.02109	
32.30	-0.09566	0.02110	
32.31	-0.09569	0.02114	
32.32	-0.09571	0.02114	
32.33	-0.09571	0.02113	
32.34	-0.09574	0.02112	
32.35	-0.09574	0.02113	
32.36	-0.09573	0.02117	
32.37	-0.09579	0.02119	
32.38	-0.09584	0.02118	
32.39	-0.09585	0.02119	
32.40	-0.09584	0.02121	
32.41	-0.09583	0.02121	
32.42	-0.09586	0.02123	
32.43	-0.09590	0.02123	
32.44	-0.09588	0.02125	
32.45	-0.09588	0.02128	
32.46	-0.09591	0.02128	
32.47	-0.09595	0.02124	
32.48	-0.09600	0.02122	
32.49	-0.09604	0.02122	
32.50	-0.09606	0.02124	
32.51	-0.09612	0.02127	
32.52	-0.09615	0.02128	
32.53	-0.09616	0.02130	
32.54	-0.09617	0.02130	
32.55	-0.09620	0.02129	
32.56	-0.09622	0.02131	
32.57	-0.09621	0.02133	
32.58	-0.09621	0.02136	
32.59	-0.09621	0.02137	
32.60	-0.09624	0.02136	
32.61	-0.09630	0.02136	
32.62	-0.09633	0.02139	
32.63	-0.09635	0.02140	
32.64	-0.09637	0.02142	
32.65	-0.09637	0.02143	
32.66	-0.09636	0.02144	
32.67	-0.09638	0.02146	
32.68	-0.09641	0.02147	
32.69	-0.09644	0.02147	
32.70	-0.09645	0.02144	
32.71	-0.09647	0.02143	
32.72	-0.09649	0.02145	
32.73	-0.09651	0.02148	
32.74	-0.09652	0.02151	
32.75	-0.09655	0.02153	
32.76	-0.09659	0.02155	
32.77	-0.09662	0.02154	
32.78	-0.09661	0.02154	
32.79	-0.09662	0.02156	
32.80	-0.09667	0.02156	
32.81	-0.09671	0.02156	
32.82	-0.09672	0.02157	
32.83	-0.09674	0.02160	
32.84	-0.09677	0.02161	
32.85	-0.09681	0.02161	
32.86	-0.09687	0.02162	
32.87	-0.09689	0.02163	
32.88	-0.09687	0.02166	
32.89	-0.09686	0.02168	
32.90	-0.09688	0.02168	
32.91	-0.09692	0.02166	
32.92	-0.09696	0.02167	
32.93	-0.09700	0.02171	
32.94	-0.09703	0.02175	
32.95	-0.09704	0.02179	
32.96	-0.09704	0.02180	
32.97	-0.09704	0.02181	
32.98	-0.09707	0.02182	
32.99	-0.09709	0.02185	
33.00	-0.09712	0.02184	
33.01	-0.09714	0.02185	
33.02	-0.09715	0.02187	
33.03	-0.09720	0.02190	
33.04	-0.09720	0.02191	
33.05	-0.09721	0.02191	
33.06	-0.09723	0.02192	
33.07	-0.09726	0.02192	
33.08	-0.09728	0.02193	
33.09	-0.09729	0.02194	
33.10	-0.09732	0.02196	
33.11	-0.09735	0.02196	
33.12	-0.09738	0.02196	
33.13	-0.09743	0.02199	
33.14	-0.09745	0.02200	
33.15	-0.09748	0.02200	
33.16	-0.09752	0.02199	
33.17	-0.09754	0.02198	
33.18	-0.09754	0.02199	
33.19	-0.09755	0.02201	
33.20	-0.09756	0.02202	
33.21	-0.09759	0.02202	
33.22	-0.09761	0.02204	
33.23	-0.09764	0.02205	
33.24	-0.09768	0.02204	
33.25	-0.09771	0.02204	
33.26	-0.09770	0.02205	
33.27	-0.09769	0.02204	
33.28	-0.09771	0.02203	
33.29	-0.09772	0.02203	
33.30	-0.09775	0.02204	
33.31	-0.09777	0.02205	
33.32	-0.09780	0.02204	
33.33	-0.09785	0.02206	
33.34	-0.09790	0.02207	
33.35	-0.09790	0.02205	
33.36	-0.09790	0.02204	
33.37	-0.09792	0.02203	
33.38	-0.09797	0.02203	
33.39	-0.09801	0.02202	
33.40	-0.09802	0.02203	
33.41	-0.09802	0.02204	
33.42	-0.09803	0.02206	
33.43	-0.09806	0.02207	
33.44	-0.09807	0.02206	
33.45	-0.09808	0.02206	
33.46	-0.09811	0.02208	
33.47	-0.09813	0.02209	
33.48	-0.09814	0.02210	
33.49	-0.09818	0.02208	
33.50	-0.09821	0.02205	
33.51	-0.09822	0.02205	
33.52	-0.09825	0.02206	
33.53	-0.09827	0.02206	
33.54	-0.09828	0.02204	
33.55	-0.09831	0.02201	
33.56	-0.09835	0.02200	
33.57	-0.09837	0.02202	
33.58	-0.09838	0.02202	
33.59	-0.09840	0.02206	
33.60	-0.09845	0.02206	
33.61	-0.09850	0.02204	
33.62	-0.09852	0.02205	
33.63	-0.09851	0.02208	
33.64	-0.09854	0.02210	
33.65	-0.09856	0.02207	
33.66	-0.09858	0.02206	
33.67	-0.09858	0.02204	
33.68	-0.09858	0.02204	
33.69	-0.09860	0.02204	
33.70	-0.09863	0.02207	
33.71	-0.09867	0.02210	
33.72	-0.09870	0.02210	
33.73	-0.09871	0.02210	
33.74	-0.09870	0.02210	
33.75	-0.09876	0.02211	
33.76	-0.09879	0.02211	
33.77	-0.09881	0.02210	
33.78	-0.09883	0.02214	
33.79	-0.09886	0.02218	
33.80	-0.09888	0.02218	
33.81	-0.09892	0.02217	
33.82	-0.09895	0.02217	
33.83	-0.09897	0.02216	
33.84	-0.09898	0.02214	
33.85	-0.09899	0.02215	
33.86	-0.09901	0.02216	
33.87	-0.09906	0.02215	
33.88	-0.09908	0.02215	
33.89	-0.09907	0.02215	
33.90	-0.09911	0.02218	
33.91	-0.09916	0.02220	
33.92	-0.09914	0.02221	
33.93	-0.09915	0.02224	
33.94	-0.09919	0.02227	
33.95	-0.09923	0.02226	
33.96	-0.09923	0.02225	
33.97	-0.09928	0.02224	
33.98	-0.09931	0.02222	
33.99	-0.09931	0.02222	
34.00	-0.09929	0.02223	
34.01	-0.09933	0.02225	
34.02	-0.09937	0.02227	
34.03	-0.09940	0.02231	
34.04	-0.09941	0.02232	
34.05	-0.09943	0.02231	
34.06	-0.09947	0.02230	
34.07	-0.09951	0.02229	
34.08	-0.09954	0.02231	
34.09	-0.09957	0.02233	
34.10	-0.09957	0.02233	
34.11	-0.09959	0.02236	
34.12	-0.09960	0.02239	
34.13	-0.09960	0.02240	
34.14	-0.09964	0.02240	
34.15	-0.09968	0.02242	
34.16	-0.09969	0.02243	
34.17	-0.09969	0.02242	
34.18	-0.09972	0.02241	
34.19	-0.09976	0.02239	
34.20	-0.09977	0.02242	
34.21	-0.09977	0.02246	
34.22	-0.09978	0.02249	
34.23	-0.09980	0.02252	
34.24	-0.09982	0.02254	
34.25	-0.09987	0.02253	
34.26	-0.09993	0.02251	
34.27	-0.09996	0.02251	
34.28	-0.09997	0.02255	
34.29	-0.09998	0.02255	
34.30	-0.1000	0.02254	
34.31	-0.1000	0.02256	
34.32	-0.1000	0.02260	
34.33	-0.1001	0.02259	
34.34	-0.1001	0.02258	
34.35	-0.1001	0.02259	
34.36	-0.1002	0.02260	
34.37	-0.1002	0.02261	
34.38	-0.1002	0.02263	
34.39	-0.1002	0.02267	
34.40	-0.1002	0.02269	
34.41	-0.1002	0.02267	
34.42	-0.1002	0.02270	
34.43	-0.1002	0.02274	
34.44	-0.1003	0.02275	
34.45	-0.1003	0.02275	
34.46	-0.1004	0.02274	
34.47	-0.1004	0.02274	
34.48	-0.1004	0.02274	
34.49	-0.1004	0.02276	
34.50	-0.1005	0.02277	
34.51	-0.1005	0.02277	
34.52	-0.1005	0.02278	
34.53	-0.1005	0.02277	
34.54	-0.1006	0.02273	
34.55	-0.1006	0.02274	
34.56	-0.1006	0.02279	
34.57	-0.1006	0.02280	
34.58	-0.1006	0.02278	
34.59	-0.1007	0.02278	
34.60	-0.1007	0.02280	
34.61	-0.1007	0.02282	
34.62	-0.1008	0.02283	
34.63	-0.1008	0.02283	
34.64	-0.1008	0.02284	
34.65	-0.1008	0.02284	
34.66	-0.1008	0.02285	
34.67	-0.1008	0.02285	
34.68	-0.1009	0.02286	
34.69	-0.1009	0.02286	
34.70	-0.1010	0.02287	
34.71	-0.1010	0.02291	
34.72	-0.1010	0.02294	
34.73	-0.1010	0.02293	
34.74	-0.1010	0.02289	
34.75	-0.1011	0.02290	
34.76	-0.1011	0.02293	
34.77	-0.1011	0.02294	
34.78	-0.1011	0.02291	
34.79	-0.1011	0.02292	
34.80	-0.1012	0.02296	
34.81	-0.1012	0.02298	
34.82	-0.1012	0.02300	
34.83	-0.1012	0.02300	
34.84	-0.1013	0.02299	
34.85	-0.1013	0.02301	
34.86	-0.1013	0.02302	
34.87	-0.1013	0.02303	
34.88	-0.1013	0.02304	
34.89	-0.1013	0.02304	
34.90	-0.1014	0.02303	
34.91	-0.1014	0.02304	
34.92	-0.1014	0.02303	
34.93	-0.1015	0.02305	
34.94	-0.1014	0.02308	
34.95	-0.1015	0.02310	
34.96	-0.1015	0.02310	
34.97	-0.1016	0.02310	
34.98	-0.1016	0.02308	
34.99	-0.1016	0.02309	
35.00	-0.1016	0.02311	
35.01	-0.1016	0.02312	
35.02	-0.1017	0.02311	
35.03	-0.1017	0.02309	
35.04	-0.1018	0.02310	
35.05	-0.1018	0.02314	
35.06	-0.1018	0.02317	
35.07	-0.1018	0.02316	
35.08	-0.1018	0.02315	
35.09	-0.1018	0.02313	
35.10	-0.1019	0.02314	
35.11	-0.1019	0.02313	
35.12	-0.1019	0.02312	
35.13	-0.1019	0.02313	
35.14	-0.1019	0.02316	
35.15	-0.1019	0.02317	
35.16	-0.1019	0.02316	
35.17	-0.1020	0.02313	
35.18	-0.1020	0.02315	
35.19	-0.1020	0.02317	
35.20	-0.1020	0.02315	
35.21	-0.1021	0.02315	
35.22	-0.1021	0.02316	
35.23	-0.1021	0.02318	
35.24	-0.1021	0.02319	
35.25	-0.1021	0.02320	
35.26	-0.1022	0.02319	
35.27	-0.1022	0.02317	
35.28	-0.1022	0.02317	
35.29	-0.1022	0.02319	
35.30	-0.1022	0.02322	
35.31	-0.1022	0.02323	
35.32	-0.1023	0.02323	
35.33	-0.1023	0.02324	
35.34	-0.1023	0.02324	
35.35	-0.1023	0.02326	
35.36	-0.1024	0.02329	
35.37	-0.1024	0.02331	
35.38	-0.1024	0.02330	
35.39	-0.1024	0.02328	
35.40	-0.1024	0.02329	
35.41	-0.1025	0.02331	
35.42	-0.1025	0.02331	
35.43	-0.1025	0.02331	
35.44	-0.1025	0.02333	
35.45	-0.1025	0.02334	
35.46	-0.1025	0.02334	
35.47	-0.1026	0.02335	
35.48	-0.1026	0.02335	
35.49	-0.1026	0.02335	
35.50	-0.1026	0.02335	
35.51	-0.1027	0.02337	
35.52	-0.1027	0.02340	
35.53	-0.1027	0.02343	
35.54	-0.1027	0.02344	
35.55	-0.1027	0.02343	
35.56	-0.1027	0.02341	
35.57	-0.1028	0.02343	
35.58	-0.1028	0.02344	
35.59	-0.1028	0.02344	
35.60	-0.1028	0.02345	
35.61	-0.1028	0.02346	
35.62	-0.1028	0.02345	
35.63	-0.1028	0.02347	
35.64	-0.1029	0.02350	
35.65	-0.1029	0.02354	
35.66	-0.1029	0.02355	
35.67	-0.1029	0.02354	
35.68	-0.1029	0.02353	
35.69	-0.1030	0.02351	
35.70	-0.1030	0.02352	
35.71	-0.1030	0.02351	
35.72	-0.1031	0.02351	
35.73	-0.1031	0.02355	
35.74	-0.1031	0.02359	
35.75	-0.1031	0.02359	
35.76	-0.1031	0.02359	
35.77	-0.1032	0.02362	
35.78	-0.1031	0.02364	
35.79	-0.1032	0.02365	
35.80	-0.1032	0.02365	
35.81	-0.1033	0.02364	
35.82	-0.1032	0.02365	
35.83	-0.1032	0.02367	
35.84	-0.1032	0.02368	
35.85	-0.1032	0.02369	
35.86	-0.1033	0.02370	
35.87	-0.1033	0.02371	
35.88	-0.1034	0.02373	
35.89	-0.1034	0.02374	
35.90	-0.1033	0.02373	
35.91	-0.1033	0.02375	
35.92	-0.1034	0.02376	
35.93	-0.1034	0.02375	
35.94	-0.1034	0.02376	
35.95	-0.1035	0.02376	
35.96	-0.1035	0.02376	
35.97	-0.1035	0.02378	
35.98	-0.1035	0.02378	
35.99	-0.1035	0.02379	
36.00	-0.1035	0.02382	
36.01	-0.1035	0.02384	
36.02	-0.1035	0.02386	
36.03	-0.1036	0.02388	
36.04	-0.1035	0.02387	
36.05	-0.1036	0.02386	
36.06	-0.1036	0.02388	
36.07	-0.1036	0.02391	
36.08	-0.1037	0.02392	
36.09	-0.1037	0.02393	
36.10	-0.1037	0.02396	
36.11	-0.1037	0.02396	
36.12	-0.1037	0.02397	
36.13	-0.1038	0.02402	
36.14	-0.1038	0.02402	
36.15	-0.1038	0.02402	
36.16	-0.1038	0.02404	
36.17	-0.1038	0.02406	
36.18	-0.1039	0.02408	
36.19	-0.1039	0.02412	
36.20	-0.1039	0.02412	
36.21	-0.1039	0.02412	
36.22	-0.1039	0.02413	
36.23	-0.1039	0.02413	
36.24	-0.1039	0.02414	
36.25	-0.1039	0.02418	
36.26	-0.1039	0.02422	
36.27	-0.1040	0.02425	
36.28	-0.1040	0.02426	
36.29	-0.1040	0.02425	
36.30	-0.1040	0.02426	
36.31	-0.1040	0.02429	
36.32	-0.1040	0.02429	
36.33	-0.1040	0.02428	
36.34	-0.1041	0.02428	
36.35	-0.1041	0.02432	
36.36	-0.1041	0.02434	
36.37	-0.1041	0.02435	
36.38	-0.1041	0.02439	
36.39	-0.1042	0.02440	
36.40	-0.1042	0.02440	
36.41	-0.1042	0.02439	
36.42	-0.1042	0.02441	
36.43	-0.1042	0.02444	
36.44	-0.1042	0.02445	
36.45	-0.1042	0.02445	
36.46	-0.1042	0.02449	
36.47	-0.1042	0.02450	
36.48	-0.1043	0.02450	
36.49	-0.1043	0.02451	
36.50	-0.1043	0.02452	
36.51	-0.1043	0.02454	
36.52	-0.1043	0.02453	
36.53	-0.1044	0.02451	
36.54	-0.1043	0.02455	
36.55	-0.1043	0.02460	
36.56	-0.1044	0.02461	
36.57	-0.1044	0.02462	
36.58	-0.1044	0.02464	
36.59	-0.1044	0.02466	
36.60	-0.1044	0.02466	
36.61	-0.1044	0.02467	
36.62	-0.1045	0.02469	
36.63	-0.1045	0.02470	
36.64	-0.1045	0.02471	
36.65	-0.1045	0.02472	
36.66	-0.1045	0.02472	
36.67	-0.1045	0.02473	
36.68	-0.1046	0.02475	
36.69	-0.1046	0.02476	
36.70	-0.1047	0.02475	
36.71	-0.1047	0.02475	
36.72	-0.1046	0.02477	
36.73	-0.1046	0.02478	
36.74	-0.1047	0.02480	
36.75	-0.1047	0.02483	
36.76	-0.1047	0.02484	
36.77	-0.1047	0.02485	
36.78	-0.1047	0.02483	
36.79	-0.1048	0.02482	
36.80	-0.1048	0.02486	
36.81	-0.1048	0.02487	
36.82	-0.1048	0.02487	
36.83	-0.1048	0.02489	
36.84	-0.1048	0.02492	
36.85	-0.1048	0.02490	
36.86	-0.1048	0.02489	
36.87	-0.1049	0.02489	
36.88	-0.1049	0.02488	
36.89	-0.1049	0.02486	
36.90	-0.1049	0.02488	
36.91	-0.1049	0.02490	
36.92	-0.1049	0.02489	
36.93	-0.1049	0.02488	
36.94	-0.1050	0.02489	
36.95	-0.1050	0.02490	
36.96	-0.1051	0.02490	
36.97	-0.1051	0.02491	
36.98	-0.1050	0.02489	
36.99	-0.1050	0.02490	
37.00	-0.1050	0.02493	
37.01	-0.1051	0.02494	
37.02	-0.1051	0.02493	
37.03	-0.1051	0.02492	
37.04	-0.1051	0.02493	
37.05	-0.1052	0.02491	
37.06	-0.1052	0.02490	
37.07	-0.1052	0.02490	
37.08	-0.1052	0.02490	
37.09	-0.1052	0.02489	
37.10	-0.1052	0.02489	
37.11	-0.1052	0.02490	
37.12	-0.1053	0.02491	
37.13	-0.1053	0.02492	
37.14	-0.1053	0.02494	
37.15	-0.1053	0.02496	
37.16	-0.1053	0.02495	
37.17	-0.1053	0.02495	
37.18	-0.1054	0.02495	
37.19	-0.1054	0.02498	
37.20	-0.1054	0.02499	
37.21	-0.1054	0.02499	
37.22	-0.1054	0.02501	
37.23	-0.1054	0.02502	
37.24	-0.1054	0.02501	
37.25	-0.1054	0.02502	
37.26	-0.1055	0.02503	
37.27	-0.1055	0.02505	
37.28	-0.1055	0.02507	
37.29	-0.1055	0.02508	
37.30	-0.1055	0.02511	
37.31	-0.1056	0.02515	
37.32	-0.1056	0.02517	
37.33	-0.1056	0.02516	
37.34	-0.1056	0.02516	
37.35	-0.1057	0.02516	
37.36	-0.1057	0.02516	
37.37	-0.1057	0.02518	
37.38	-0.1057	0.02519	
37.39	-0.1057	0.02519	
37.40	-0.1057	0.02521	
37.41	-0.1057	0.02525	
37.42	-0.1058	0.02527	
37.43	-0.1058	0.02526	
37.44	-0.1058	0.02527	
37.45	-0.1059	0.02527	
37.46	-0.1059	0.02529	
37.47	-0.1059	0.02529	
37.48	-0.1059	0.02530	
37.49	-0.1059	0.02533	
37.50	-0.1060	0.02536	
37.51	-0.1060	0.02535	
37.52	-0.1060	0.02535	
37.53	-0.1060	0.02536	
37.54	-0.1060	0.02537	
37.55	-0.1060	0.02538	
37.56	-0.1060	0.02540	
37.57	-0.1060	0.02541	
37.58	-0.1061	0.02542	
37.59	-0.1061	0.02542	
37.60	-0.1061	0.02542	
37.61	-0.1061	0.02543	
37.62	-0.1061	0.02544	
37.63	-0.1062	0.02546	
37.64	-0.1062	0.02550	
37.65	-0.1063	0.02552	
37.66	-0.1063	0.02553	
37.67	-0.1063	0.02553	
37.68	-0.1063	0.02553	
37.69	-0.1063	0.02554	
37.70	-0.1063	0.02556	
37.71	-0.1063	0.02558	
37.72	-0.1063	0.02560	
37.73	-0.1063	0.02561	
37.74	-0.1064	0.02561	
37.75	-0.1064	0.02562	
37.76	-0.1064	0.02566	
37.77	-0.1064	0.02568	
37.78	-0.1064	0.02566	
37.79	-0.1064	0.02565	
37.80	-0.1065	0.02567	
37.81	-0.1065	0.02569	
37.82	-0.1065	0.02572	
37.83	-0.1065	0.02573	
37.84	-0.1066	0.02572	
37.85	-0.1066	0.02570	
37.86	-0.1066	0.02571	
37.87	-0.1066	0.02575	
37.88	-0.1066	0.02579	
37.89	-0.1066	0.02579	
37.90	-0.1067	0.02580	
37.91	-0.1067	0.02584	
37.92	-0.1067	0.02585	
37.93	-0.1067	0.02586	
37.94	-0.1067	0.02587	
37.95	-0.1068	0.02586	
37.96	-0.1068	0.02587	
37.97	-0.1068	0.02589	
37.98	-0.1068	0.02589	
37.99	-0.1068	0.02589	
38.00	-0.1068	0.02589	
38.01	-0.1068	0.02590	
38.02	-0.1068	0.02593	
38.03	-0.1069	0.02596	
38.04	-0.1069	0.02598	
38.05	-0.1069	0.02599	
38.06	-0.1070	0.02599	
38.07	-0.1069	0.02600	
38.08	-0.1069	0.02603	
38.09	-0.1070	0.02606	
38.10	-0.1070	0.02607	
38.11	-0.1070	0.02610	
38.12	-0.1070	0.02613	
38.13	-0.1070	0.02613	
38.14	-0.1071	0.02612	
38.15	-0.1071	0.02615	
38.16	-0.1071	0.02617	
38.17	-0.1071	0.02617	
38.18	-0.1071	0.02617	
38.19	-0.1071	0.02618	
38.20	-0.1072	0.02619	
38.21	-0.1072	0.02620	
38.22	-0.1072	0.02622	
38.23	-0.1072	0.02626	
38.24	-0.1072	0.02627	
38.25	-0.1073	0.02626	
38.26	-0.1073	0.02626	
38.27	-0.1073	0.02624	
38.28	-0.1073	0.02624	
38.29	-0.1073	0.02626	
38.30	-0.1074	0.02629	
38.31	-0.1074	0.02630	
38.32	-0.1074	0.02632	
38.33	-0.1074	0.02632	
38.34	-0.1073	0.02631	
38.35	-0.1074	0.02633	
38.36	-0.1075	0.02631	
38.37	-0.1074	0.02634	
38.38	-0.1074	0.02638	
38.39	-0.1075	0.02638	
38.40	-0.1075	0.02637	
38.41	-0.1075	0.02635	
38.42	-0.1075	0.02636	
38.43	-0.1076	0.02639	
38.44	-0.1076	0.02642	
38.45	-0.1076	0.02642	
38.46	-0.1076	0.02643	
38.47	-0.1076	0.02645	
38.48	-0.1076	0.02646	
38.49	-0.1076	0.02648	
38.50	-0.1077	0.02648	
38.51	-0.1077	0.02648	
38.52	-0.1077	0.02649	
38.53	-0.1077	0.02650	
38.54	-0.1077	0.02653	
38.55	-0.1077	0.02654	
38.56	-0.1077	0.02654	
38.57	-0.1077	0.02655	
38.58	-0.1077	0.02656	
38.59	-0.1078	0.02657	
38.60	-0.1078	0.02657	
38.61	-0.1078	0.02658	
38.62	-0.1078	0.02660	
38.63	-0.1078	0.02661	
38.64	-0.1078	0.02662	
38.65	-0.1079	0.02666	
38.66	-0.1079	0.02668	
38.67	-0.1079	0.02670	
38.68	-0.1079	0.02671	
38.69	-0.1080	0.02675	
38.70	-0.1080	0.02677	
38.71	-0.1080	0.02677	
38.72	-0.1080	0.02676	
38.73	-0.1080	0.02678	
38.74	-0.1080	0.02681	
38.75	-0.1081	0.02682	
38.76	-0.1081	0.02682	
38.77	-0.1081	0.02685	
38.78	-0.1081	0.02689	
38.79	-0.1081	0.02689	
38.80	-0.1081	0.02691	
38.81	-0.1081	0.02695	
38.82	-0.1081	0.02698	
38.83	-0.1082	0.02700	
38.84	-0.1082	0.02701	
38.85	-0.1082	0.02701	
38.86	-0.1082	0.02701	
38.87	-0.1082	0.02702	
38.88	-0.1082	0.02700	
38.89	-0.1083	0.02701	
38.90	-0.1083	0.02703	
38.91	-0.1083	0.02704	
38.92	-0.1083	0.02706	
38.93	-0.1083	0.02707	
38.94	-0.1083	0.02709	
38.95	-0.1084	0.02710	
38.96	-0.1084	0.02712	
38.97	-0.1084	0.02715	
38.98	-0.1084	0.02719	
38.99	-0.1084	0.02720	
39.00	-0.1085	0.02720	
39.01	-0.1085	0.02721	
39.02	-0.1085	0.02721	
39.03	-0.1085	0.02724	
39.04	-0.1085	0.02725	
39.05	-0.1085	0.02726	
39.06	-0.1085	0.02727	
39.07	-0.1085	0.02729	
39.08	-0.1085	0.02729	
39.09	-0.1085	0.02730	
39.10	-0.1086	0.02730	
39.11	-0.1086	0.02733	
39.12	-0.1086	0.02735	
39.13	-0.1086	0.02736	
39.14	-0.1086	0.02738	
39.15	-0.1086	0.02739	
39.16	-0.1086	0.02741	
39.17	-0.1087	0.02742	
39.18	-0.1087	0.02745	
39.19	-0.1087	0.02747	
39.20	-0.1087	0.02746	
39.21	-0.1087	0.02747	
39.22	-0.1087	0.02752	
39.23	-0.1087	0.02753	
39.24	-0.1087	0.02752	
39.25	-0.1087	0.02754	
39.26	-0.1088	0.02758	
39.27	-0.1088	0.02762	
39.28	-0.1088	0.02763	
39.29	-0.1089	0.02764	
39.30	-0.1089	0.02767	
39.31	-0.1089	0.02769	
39.32	-0.1089	0.02769	
39.33	-0.1089	0.02771	
39.34	-0.1089	0.02773	
39.35	-0.1089	0.02773	
39.36	-0.1089	0.02773	
39.37	-0.1089	0.02774	
39.38	-0.1089	0.02779	
39.39	-0.1090	0.02782	
39.40	-0.1090	0.02784	
39.41	-0.1090	0.02784	
39.42	-0.1090	0.02787	
39.43	-0.1091	0.02790	
39.44	-0.1091	0.02793	
39.45	-0.1091	0.02796	
39.46	-0.1091	0.02800	
39.47	-0.1091	0.02802	
39.48	-0.1091	0.02803	
39.49	-0.1091	0.02803	
39.50	-0.1092	0.02804	
39.51	-0.1092	0.02808	
39.52	-0.1092	0.02810	
39.53	-0.1092	0.02810	
39.54	-0.1092	0.02813	
39.55	-0.1093	0.02814	
39.56	-0.1093	0.02815	
39.57	-0.1093	0.02816	
39.58	-0.1093	0.02818	
39.59	-0.1093	0.02818	
39.60	-0.1093	0.02817	
39.61	-0.1093	0.02818	
39.62	-0.1093	0.02819	
39.63	-0.1094	0.02822	
39.64	-0.1094	0.02825	
39.65	-0.1094	0.02826	
39.66	-0.1094	0.02828	
39.67	-0.1094	0.02831	
39.68	-0.1094	0.02832	
39.69	-0.1094	0.02832	
39.70	-0.1094	0.02833	
39.71	-0.1094	0.02836	
39.72	-0.1095	0.02837	
39.73	-0.1095	0.02837	
39.74	-0.1095	0.02836	
39.75	-0.1095	0.02838	
39.76	-0.1095	0.02839	
39.77	-0.1095	0.02841	
39.78	-0.1096	0.02843	
39.79	-0.1096	0.02845	
39.80	-0.1096	0.02845	
39.81	-0.1096	0.02845	
39.82	-0.1096	0.02848	
39.83	-0.1097	0.02849	
39.84	-0.1097	0.02851	
39.85	-0.1097	0.02852	
39.86	-0.1097	0.02854	
39.87	-0.1098	0.02854	
39.88	-0.1098	0.02853	
39.89	-0.1098	0.02855	
39.90	-0.1098	0.02858	
39.91	-0.1098	0.02861	
39.92	-0.1098	0.02861	
39.93	-0.1098	0.02862	
39.94	-0.1098	0.02862	
39.95	-0.1098	0.02862	
39.96	-0.1099	0.02864	
39.97	-0.1099	0.02865	
39.98	-0.1099	0.02867	
39.99	-0.1099	0.02868	
40.00	-0.1099	0.02869	
40.01	-0.1100	0.02869	
40.02	-0.1100	0.02871	
40.03	-0.1100	0.02875	
40.04	-0.1100	0.02877	
40.05	-0.1100	0.02875	
40.06	-0.1100	0.02875	
40.07	-0.1100	0.02878	
40.08	-0.1100	0.02881	
40.09	-0.1101	0.02882	
40.10	-0.1101	0.02882	
40.11	-0.1101	0.02885	
40.12	-0.1101	0.02886	
40.13	-0.1101	0.02886	
40.14	-0.1102	0.02887	
40.15	-0.1102	0.02888	
40.16	-0.1102	0.02890	
40.17	-0.1102	0.02892	
40.18	-0.1102	0.02893	
40.19	-0.1102	0.02893	
40.20	-0.1102	0.02891	
40.21	-0.1103	0.02892	
40.22	-0.1103	0.02893	
40.23	-0.1103	0.02896	
40.24	-0.1103	0.02900	
40.25	-0.1103	0.02901	
40.26	-0.1104	0.02901	
40.27	-0.1104	0.02903	
40.28	-0.1104	0.02903	
40.29	-0.1104	0.02902	
40.30	-0.1104	0.02902	
40.31	-0.1104	0.02904	
40.32	-0.1104	0.02906	
40.33	-0.1104	0.02906	
40.34	-0.1105	0.02909	
40.35	-0.1105	0.02911	
40.36	-0.1105	0.02910	
40.37	-0.1105	0.02909	
40.38	-0.1105	0.02909	
40.39	-0.1106	0.02909	
40.40	-0.1106	0.02909	
40.41	-0.1106	0.02910	
40.42	-0.1106	0.02912	
40.43	-0.1106	0.02914	
40.44	-0.1106	0.02916	
40.45	-0.1106	0.02917	
40.46	-0.1106	0.02917	
40.47	-0.1107	0.02918	
40.48	-0.1107	0.02921	
40.49	-0.1107	0.02923	
40.50	-0.1108	0.02923	
40.51	-0.1108	0.02924	
40.52	-0.1108	0.02927	
40.53	-0.1108	0.02927	
40.54	-0.1108	0.02925	
40.55	-0.1108	0.02925	
40.56	-0.1109	0.02928	
40.57	-0.1109	0.02928	
40.58	-0.1109	0.02928	
40.59	-0.1109	0.02930	
40.60	-0.1109	0.02932	
40.61	-0.1110	0.02934	
40.62	-0.1110	0.02935	
40.63	-0.1110	0.02935	
40.64	-0.1110	0.02935	
40.65	-0.1110	0.02936	
40.66	-0.1110	0.02935	
40.67	-0.1110	0.02935	
40.68	-0.1110	0.02936	
40.69	-0.1110	0.02937	
40.70	-0.1110	0.02937	
40.71	-0.1111	0.02937	
40.72	-0.1111	0.02939	
40.73	-0.1111	0.02938	
40.74	-0.1111	0.02938	
40.75	-0.1111	0.02938	
40.76	-0.1111	0.02939	
40.77	-0.1112	0.02939	
40.78	-0.1112	0.02940	
40.79	-0.1112	0.02944	
40.80	-0.1112	0.02946	
40.81	-0.1113	0.02945	
40.82	-0.1113	0.02945	
40.83	-0.1113	0.02945	
40.84	-0.1113	0.02944	
40.85	-0.1113	0.02943	
40.86	-0.1113	0.02945	
40.87	-0.1113	0.02948	
40.88	-0.1113	0.02948	
40.89	-0.1113	0.02945	
40.90	-0.1114	0.02941	
40.91	-0.1114	0.02942	
40.92	-0.1114	0.02943	
40.93	-0.1114	0.02944	
40.94	-0.1114	0.02943	
40.95	-0.1115	0.02943	
40.96	-0.1115	0.02944	
40.97	-0.1115	0.02945	
40.98	-0.1115	0.02944	
40.99	-0.1115	0.02942	
41.00	-0.1115	0.02943	
41.01	-0.1115	0.02943	
41.02	-0.1115	0.02943	
41.03	-0.1116	0.02946	
41.04	-0.1116	0.02947	
41.05	-0.1116	0.02945	
41.06	-0.1116	0.02943	
41.07	-0.1116	0.02944	
41.08	-0.1117	0.02944	
41.09	-0.1117	0.02944	
41.10	-0.1117	0.02945	
41.11	-0.1117	0.02947	
41.12	-0.1117	0.02948	
41.13	-0.1117	0.02948	
41.14	-0.1117	0.02946	
41.15	-0.1117	0.02946	
41.16	-0.1117	0.02949	
41.17	-0.1117	0.02949	
41.18	-0.1118	0.02948	
41.19	-0.1118	0.02948	
41.20	-0.1118	0.02949	
41.21	-0.1118	0.02951	
41.22	-0.1119	0.02951	
41.23	-0.1119	0.02950	
41.24	-0.1119	0.02951	
41.25	-0.1119	0.02952	
41.26	-0.1119	0.02952	
41.27	-0.1119	0.02952	
41.28	-0.1119	0.02953	
41.29	-0.1120	0.02955	
41.30	-0.1119	0.02957	
41.31	-0.1120	0.02957	
41.32	-0.1120	0.02957	
41.33	-0.1121	0.02957	
41.34	-0.1121	0.02958	
41.35	-0.1121	0.02959	
41.36	-0.1121	0.02961	
41.37	-0.1121	0.02961	
41.38	-0.1121	0.02962	
41.39	-0.1121	0.02965	
41.40	-0.1121	0.02966	
41.41	-0.1122	0.02965	
41.42	-0.1122	0.02965	
41.43	-0.1122	0.02966	
41.44	-0.1122	0.02966	
41.45	-0.1122	0.02966	
41.46	-0.1122	0.02967	
41.47	-0.1123	0.02968	
41.48	-0.1123	0.02968	
41.49	-0.1123	0.02970	
41.50	-0.1123	0.02972	
41.51	-0.1123	0.02971	
41.52	-0.1123	0.02970	
41.53	-0.1124	0.02972	
41.54	-0.1124	0.02975	
41.55	-0.1124	0.02974	
41.56	-0.1124	0.02973	
41.57	-0.1124	0.02972	
41.58	-0.1124	0.02972	
41.59	-0.1125	0.02973	
41.60	-0.1125	0.02975	
41.61	-0.1126	0.02976	
41.62	-0.1125	0.02978	
41.63	-0.1125	0.02979	
41.64	-0.1125	0.02980	
41.65	-0.1125	0.02981	
41.66	-0.1126	0.02981	
41.67	-0.1125	0.02983	
41.68	-0.1125	0.02984	
41.69	-0.1125	0.02983	
41.70	-0.1126	0.02982	
41.71	-0.1126	0.02983	
41.72	-0.1126	0.02985	
41.73	-0.1126	0.02985	
41.74	-0.1127	0.02983	
41.75	-0.1127	0.02982	
41.76	-0.1127	0.02983	
41.77	-0.1127	0.02986	
41.78	-0.1127	0.02986	
41.79	-0.1127	0.02986	
41.80	-0.1127	0.02987	
41.81	-0.1128	0.02988	
41.82	-0.1128	0.02988	
41.83	-0.1128	0.02989	
41.84	-0.1128	0.02990	
41.85	-0.1128	0.02995	
41.86	-0.1129	0.02997	
41.87	-0.1129	0.02998	
41.88	-0.1129	0.02995	
41.89	-0.1129	0.02991	
41.90	-0.1129	0.02991	
41.91	-0.1129	0.02994	
41.92	-0.1129	0.02996	
41.93	-0.1129	0.02997	
41.94	-0.1130	0.02999	
41.95	-0.1130	0.03001	
41.96	-0.1130	0.03002	
41.97	-0.1130	0.03004	
41.98	-0.1130	0.03007	
41.99	-0.1130	0.03007	
42.00	-0.1130	0.03007	
42.01	-0.1131	0.03009	
42.02	-0.1131	0.03008	
42.03	-0.1131	0.03004	
42.04	-0.1131	0.03002	
42.05	-0.1131	0.03002	
42.06	-0.1132	0.03004	
42.07	-0.1132	0.03007	
42.08	-0.1132	0.03009	
42.09	-0.1132	0.03011	
42.10	-0.1132	0.03011	
42.11	-0.1132	0.03012	
42.12	-0.1132	0.03012	
42.13	-0.1133	0.03012	
42.14	-0.1132	0.03014	
42.15	-0.1132	0.03013	
42.16	-0.1132	0.03014	
42.17	-0.1132	0.03016	
42.18	-0.1133	0.03016	
42.19	-0.1133	0.03014	
42.20	-0.1133	0.03014	
42.21	-0.1133	0.03017	
42.22	-0.1134	0.03018	
42.23	-0.1134	0.03021	
42.24	-0.1134	0.03021	
42.25	-0.1134	0.03019	
42.26	-0.1134	0.03016	
42.27	-0.1135	0.03017	
42.28	-0.1135	0.03019	
42.29	-0.1135	0.03020	
42.30	-0.1135	0.03021	
42.31	-0.1135	0.03021	
42.32	-0.1135	0.03021	
42.33	-0.1135	0.03020	
42.34	-0.1135	0.03019	
42.35	-0.1136	0.03020	
42.36	-0.1136	0.03021	
42.37	-0.1136	0.03022	
42.38	-0.1136	0.03021	
42.39	-0.1137	0.03021	
42.40	-0.1137	0.03022	
42.41	-0.1136	0.03021	
42.42	-0.1136	0.03021	
42.43	-0.1137	0.03022	
42.44	-0.1137	0.03025	
42.45	-0.1137	0.03025	
42.46	-0.1137	0.03024	
42.47	-0.1137	0.03023	
42.48	-0.1137	0.03024	
42.49	-0.1138	0.03025	
42.50	-0.1138	0.03024	
42.51	-0.1138	0.03024	
42.52	-0.1138	0.03024	
42.53	-0.1138	0.03025	
42.54	-0.1138	0.03027	
42.55	-0.1139	0.03026	
42.56	-0.1139	0.03024	
42.57	-0.1139	0.03023	
42.58	-0.1139	0.03023	
42.59	-0.1139	0.03022	
42.60	-0.1139	0.03024	
42.61	-0.1139	0.03025	
42.62	-0.1139	0.03024	
42.63	-0.1139	0.03022	
42.64	-0.1139	0.03021	
42.65	-0.1140	0.03023	
42.66	-0.1140	0.03026	
42.67	-0.1140	0.03027	
42.68	-0.1140	0.03028	
42.69	-0.1140	0.03028	
42.70	-0.1140	0.03029	
42.71	-0.1141	0.03028	
42.72	-0.1141	0.03026	
42.73	-0.1141	0.03026	
42.74	-0.1141	0.03030	
42.75	-0.1142	0.03032	
42.76	-0.1142	0.03031	
42.77	-0.1142	0.03029	
42.78	-0.1142	0.03028	
42.79	-0.1142	0.03028	
42.80	-0.1142	0.03031	
42.81	-0.1142	0.03032	
42.82	-0.1143	0.03030	
42.83	-0.1143	0.03031	
42.84	-0.1142	0.03033	
42.85	-0.1142	0.03033	
42.86	-0.1143	0.03033	
42.87	-0.1143	0.03033	
42.88	-0.1143	0.03033	
42.89	-0.1144	0.03031	
42.90	-0.1144	0.03032	
42.91	-0.1144	0.03034	
42.92	-0.1144	0.03036	
42.93	-0.1144	0.03038	
42.94	-0.1144	0.03038	
42.95	-0.1144	0.03035	
42.96	-0.1144	0.03036	
42.97	-0.1144	0.03038	
42.98	-0.1145	0.03038	
42.99	-0.1145	0.03038	
43.00	-0.1145	0.03038	
43.01	-0.1145	0.03039	
43.02	-0.1145	0.03041	
43.03	-0.1146	0.03040	
43.04	-0.1146	0.03040	
43.05	-0.1146	0.03042	
43.06	-0.1146	0.03044	
43.07	-0.1146	0.03044	
43.08	-0.1146	0.03044	
43.09	-0.1146	0.03045	
43.10	-0.1146	0.03046	
43.11	-0.1146	0.03047	
43.12	-0.1147	0.03047	
43.13	-0.1147	0.03046	
43.14	-0.1146	0.03048	
43.15	-0.1147	0.03051	
43.16	-0.1147	0.03053	
43.17	-0.1147	0.03051	
43.18	-0.1147	0.03048	
43.19	-0.1147	0.03048	
43.20	-0.1147	0.03050	
43.21	-0.1147	0.03052	
43.22	-0.1148	0.03052	
43.23	-0.1148	0.03050	
43.24	-0.1148	0.03050	
43.25	-0.1148	0.03051	
43.26	-0.1149	0.03052	
43.27	-0.1149	0.03054	
43.28	-0.1149	0.03055	
43.29	-0.1149	0.03054	
43.30	-0.1149	0.03053	
43.31	-0.1149	0.03054	
43.32	-0.1149	0.03054	
43.33	-0.1149	0.03053	
43.34	-0.1150	0.03055	
43.35	-0.1149	0.03054	
43.36	-0.1149	0.03056	
43.37	-0.1150	0.03060	
43.38	-0.1150	0.03060	
43.39	-0.1150	0.03058	
43.40	-0.1150	0.03058	
43.41	-0.1150	0.03061	
43.42	-0.1150	0.03062	
43.43	-0.1151	0.03063	
43.44	-0.1151	0.03063	
43.45	-0.1151	0.03064	
43.46	-0.1151	0.03064	
43.47	-0.1151	0.03065	
43.48	-0.1151	0.03067	
43.49	-0.1151	0.03069	
43.50	-0.1152	0.03070	
43.51	-0.1152	0.03070	
43.52	-0.1152	0.03072	
43.53	-0.1152	0.03073	
43.54	-0.1153	0.03071	
43.55	-0.1153	0.03069	
43.56	-0.1153	0.03069	
43.57	-0.1153	0.03070	
43.58	-0.1153	0.03073	
43.59	-0.1153	0.03074	
43.60	-0.1153	0.03076	
43.61	-0.1154	0.03076	
43.62	-0.1154	0.03077	
43.63	-0.1154	0.03078	
43.64	-0.1154	0.03078	
43.65	-0.1154	0.03077	
43.66	-0.1154	0.03078	
43.67	-0.1154	0.03079	
43.68	-0.1155	0.03079	
43.69	-0.1155	0.03080	
43.70	-0.1155	0.03082	
43.71	-0.1155	0.03085	
43.72	-0.1155	0.03086	
43.73	-0.1155	0.03085	
43.74	-0.1155	0.03086	
43.75	-0.1155	0.03090	
43.76	-0.1155	0.03091	
43.77	-0.1156	0.03090	
43.78	-0.1156	0.03090	
43.79	-0.1156	0.03092	
43.80	-0.1156	0.03092	
43.81	-0.1156	0.03092	
43.82	-0.1156	0.03093	
43.83	-0.1156	0.03095	
43.84	-0.1157	0.03097	
43.85	-0.1157	0.03096	
43.86	-0.1157	0.03094	
43.87	-0.1157	0.03095	
43.88	-0.1157	0.03099	
43.89	-0.1158	0.03101	
43.90	-0.1158	0.03098	
43.91	-0.1158	0.03097	
43.92	-0.1158	0.03099	
43.93	-0.1158	0.03102	
43.94	-0.1158	0.03103	
43.95	-0.1158	0.03104	
43.96	-0.1158	0.03104	
43.97	-0.1159	0.03106	
43.98	-0.1159	0.03107	
43.99	-0.1159	0.03107	
44.00	-0.1159	0.03107	
44.01	-0.1160	0.03109	
44.02	-0.1160	0.03110	
44.03	-0.1160	0.03110	
44.04	-0.1160	0.03109	
44.05	-0.1160	0.03110	
44.06	-0.1160	0.03111	
44.07	-0.1160	0.03111	
44.08	-0.1160	0.03109	
44.09	-0.1160	0.03110	
44.10	-0.1161	0.03112	
44.11	-0.1161	0.03113	
44.12	-0.1161	0.03114	
44.13	-0.1161	0.03116	
44.14	-0.1161	0.03117	
44.15	-0.1161	0.03118	
44.16	-0.1161	0.03115	
44.17	-0.1161	0.03114	
44.18	-0.1161	0.03115	
44.19	-0.1161	0.03118	
44.20	-0.1161	0.03120	
44.21	-0.1162	0.03122	
44.22	-0.1162	0.03122	
44.23	-0.1162	0.03120	
44.24	-0.1162	0.03120	
44.25	-0.1162	0.03121	
44.26	-0.1162	0.03121	
44.27	-0.1163	0.03119	
44.28	-0.1163	0.03119	
44.29	-0.1163	0.03122	
44.30	-0.1163	0.03123	
44.31	-0.1163	0.03123	
44.32	-0.1163	0.03123	
44.33	-0.1163	0.03123	
44.34	-0.1163	0.03123	
44.35	-0.1163	0.03122	
44.36	-0.1163	0.03121	
44.37	-0.1164	0.03119	
44.38	-0.1164	0.03120	
44.39	-0.1164	0.03120	
44.40	-0.1164	0.03122	
44.41	-0.1164	0.03123	
44.42	-0.1164	0.03122	
44.43	-0.1164	0.03121	
44.44	-0.1165	0.03120	
44.45	-0.1165	0.03119	
44.46	-0.1165	0.03120	
44.47	-0.1165	0.03122	
44.48	-0.1166	0.03121	
44.49	-0.1166	0.03120	
44.50	-0.1166	0.03119	
44.51	-0.1166	0.03117	
44.52	-0.1166	0.03118	
44.53	-0.1166	0.03119	
44.54	-0.1166	0.03116	
44.55	-0.1166	0.03116	
44.56	-0.1166	0.03118	
44.57	-0.1166	0.03120	
44.58	-0.1166	0.03120	
44.59	-0.1166	0.03118	
44.60	-0.1167	0.03117	
44.61	-0.1167	0.03116	
44.62	-0.1167	0.03115	
44.63	-0.1167	0.03115	
44.64	-0.1167	0.03114	
44.65	-0.1167	0.03115	
44.66	-0.1167	0.03117	
44.67	-0.1168	0.03117	
44.68	-0.1168	0.03117	
44.69	-0.1168	0.03117	
44.70	-0.1168	0.03116	
44.71	-0.1168	0.03115	
44.72	-0.1168	0.03116	
44.73	-0.1168	0.03117	
44.74	-0.1169	0.03118	
44.75	-0.1169	0.03117	
44.76	-0.1169	0.03117	
44.77	-0.1169	0.03116	
44.78	-0.1169	0.03115	
44.79	-0.1170	0.03115	
44.80	-0.1170	0.03117	
44.81	-0.1170	0.03121	
44.82	-0.1170	0.03123	
44.83	-0.1170	0.03120	
44.84	-0.1170	0.03120	
44.85	-0.1170	0.03124	
44.86	-0.1170	0.03127	
44.87	-0.1170	0.03126	
44.88	-0.1171	0.03126	
44.89	-0.1171	0.03128	
44.90	-0.1171	0.03130	
44.91	-0.1171	0.03131	
44.92	-0.1171	0.03132	
44.93	-0.1171	0.03132	
44.94	-0.1171	0.03132	
44.95	-0.1171	0.03133	
44.96	-0.1171	0.03135	
44.97	-0.1172	0.03137	
44.98	-0.1172	0.03137	
44.99	-0.1173	0.03139	
45.00	-0.1173	0.03139	
45.01	-0.1172	0.03137	
45.02	-0.1173	0.03135	
45.03	-0.1173	0.03136	
45.04	-0.1173	0.03139	
45.05	-0.1173	0.03143	
45.06	-0.1173	0.03146	
45.07	-0.1174	0.03147	
45.08	-0.1174	0.03146	
45.09	-0.1173	0.03147	
45.10	-0.1173	0.03148	
45.11	-0.1173	0.03146	
45.12	-0.1174	0.03146	
45.13	-0.1174	0.03148	
45.14	-0.1174	0.03151	
45.15	-0.1174	0.03153	
45.16	-0.1174	0.03152	
45.17	-0.1174	0.03154	
45.18	-0.1174	0.03155	
45.19	-0.1175	0.03155	
45.20	-0.1175	0.03156	
45.21	-0.1175	0.03159	
45.22	-0.1175	0.03160	
45.23	-0.1175	0.03161	
45.24	-0.1176	0.03164	
45.25	-0.1176	0.03167	
45.26	-0.1176	0.03171	
45.27	-0.1176	0.03171	
45.28	-0.1176	0.03174	
45.29	-0.1176	0.03177	
45.30	-0.1176	0.03183	
45.31	-0.1176	0.03184	
45.32	-0.1177	0.03184	
45.33	-0.1177	0.03185	
45.34	-0.1178	0.03187	
45.35	-0.1178	0.03189	
45.36	-0.1178	0.03190	
45.37	-0.1178	0.03193	
45.38	-0.1178	0.03199	
45.39	-0.1178	0.03200	
45.40	-0.1178	0.03200	
45.41	-0.1178	0.03201	
45.42	-0.1178	0.03205	
45.43	-0.1178	0.03210	
45.44	-0.1179	0.03216	
45.45	-0.1179	0.03218	
45.46	-0.1179	0.03219	
45.47	-0.1179	0.03221	
45.48	-0.1179	0.03223	
45.49	-0.1179	0.03226	
45.50	-0.1179	0.03232	
45.51	-0.1180	0.03235	
45.52	-0.1180	0.03234	
45.53	-0.1180	0.03237	
45.54	-0.1180	0.03240	
45.55	-0.1180	0.03243	
45.56	-0.1181	0.03245	
45.57	-0.1181	0.03247	
45.58	-0.1181	0.03253	
45.59	-0.1181	0.03258	
45.60	-0.1181	0.03263	
45.61	-0.1181	0.03266	
45.62	-0.1181	0.03270	
45.63	-0.1181	0.03275	
45.64	-0.1182	0.03278	
45.65	-0.1182	0.03281	
45.66	-0.1182	0.03285	
45.67	-0.1182	0.03288	
45.68	-0.1182	0.03288	
45.69	-0.1182	0.03293	
45.70	-0.1182	0.03297	
45.71	-0.1182	0.03301	
45.72	-0.1183	0.03306	
45.73	-0.1183	0.03309	
45.74	-0.1183	0.03314	
45.75	-0.1183	0.03317	
45.76	-0.1183	0.03321	
45.77	-0.1184	0.03323	
45.78	-0.1184	0.03323	
45.79	-0.1184	0.03327	
45.80	-0.1184	0.03332	
45.81	-0.1184	0.03335	
45.82	-0.1185	0.03338	
45.83	-0.1185	0.03341	
45.84	-0.1185	0.03344	
45.85	-0.1185	0.03346	
45.86	-0.1185	0.03351	
45.87	-0.1185	0.03354	
45.88	-0.1186	0.03357	
45.89	-0.1186	0.03359	
45.90	-0.1186	0.03362	
45.91	-0.1186	0.03365	
45.92	-0.1186	0.03367	
45.93	-0.1187	0.03370	
45.94	-0.1187	0.03374	
45.95	-0.1186	0.03378	
45.96	-0.1187	0.03380	
45.97	-0.1187	0.03383	
45.98	-0.1187	0.03385	
45.99	-0.1188	0.03385	
46.00	-0.1188	0.03389	
46.01	-0.1188	0.03394	
46.02	-0.1188	0.03399	
46.03	-0.1188	0.03401	
46.04	-0.1188	0.03406	
46.05	-0.1188	0.03409	
46.06	-0.1188	0.03411	
46.07	-0.1188	0.03415	
46.08	-0.1188	0.03418	
46.09	-0.1189	0.03422	
46.10	-0.1189	0.03428	
46.11	-0.1189	0.03434	
46.12	-0.1190	0.03439	
46.13	-0.1190	0.03441	
46.14	-0.1190	0.03444	
46.15	-0.1190	0.03448	
46.16	-0.1190	0.03451	
46.17	-0.1191	0.03455	
46.18	-0.1191	0.03460	
46.19	-0.1191	0.03461	
46.20	-0.1191	0.03463	
46.21	-0.1191	0.03464	
46.22	-0.1191	0.03470	
46.23	-0.1192	0.03477	
46.24	-0.1192	0.03479	
46.25	-0.1192	0.03482	
46.26	-0.1192	0.03487	
46.27	-0.1192	0.03492	
46.28	-0.1193	0.03496	
46.29	-0.1193	0.03500	
46.30	-0.1193	0.03503	
46.31	-0.1193	0.03505	
46.32	-0.1193	0.03508	
46.33	-0.1194	0.03515	
46.34	-0.1194	0.03519	
46.35	-0.1194	0.03525	
46.36	-0.1194	0.03532	
46.37	-0.1194	0.03535	
46.38	-0.1195	0.03539	
46.39	-0.1195	0.03546	
46.40	-0.1195	0.03552	
46.41	-0.1196	0.03553	
46.42	-0.1196	0.03556	
46.43	-0.1196	0.03564	
46.44	-0.1196	0.03570	
46.45	-0.1196	0.03573	
46.46	-0.1196	0.03577	
46.47	-0.1197	0.03583	
46.48	-0.1197	0.03589	
46.49	-0.1197	0.03592	
46.50	-0.1197	0.03596	
46.51	-0.1197	0.03604	
46.52	-0.1197	0.03611	
46.53	-0.1198	0.03616	
46.54	-0.1198	0.03621	
46.55	-0.1198	0.03628	
46.56	-0.1198	0.03632	
46.57	-0.1199	0.03635	
46.58	-0.1199	0.03638	
46.59	-0.1199	0.03643	
46.60	-0.1199	0.03649	
46.61	-0.1199	0.03654	
46.62	-0.1200	0.03658	
46.63	-0.1200	0.03663	
46.64	-0.1200	0.03669	
46.65	-0.1201	0.03672	
46.66	-0.1201	0.03676	
46.67	-0.1201	0.03683	
46.68	-0.1201	0.03687	
46.69	-0.1202	0.03690	
46.70	-0.1202	0.03692	
46.71	-0.1202	0.03695	
46.72	-0.1202	0.03702	
46.73	-0.1203	0.03708	
46.74	-0.1203	0.03712	
46.75	-0.1203	0.03718	
46.76	-0.1203	0.03726	
46.77	-0.1203	0.03731	
46.78	-0.1203	0.03736	
46.79	-0.1204	0.03742	
46.80	-0.1204	0.03748	
46.81	-0.1204	0.03754	
46.82	-0.1204	0.03761	
46.83	-0.1204	0.03767	
46.84	-0.1205	0.03772	
46.85	-0.1205	0.03777	
46.86	-0.1205	0.03783	
46.87	-0.1205	0.03790	
46.88	-0.1205	0.03799	
46.89	-0.1206	0.03807	
46.90	-0.1207	0.03813	
46.91	-0.1207	0.03820	
46.92	-0.1207	0.03826	
46.93	-0.1207	0.03833	
46.94	-0.1207	0.03838	
46.95	-0.1208	0.03845	
46.96	-0.1208	0.03853	
46.97	-0.1208	0.03863	
46.98	-0.1208	0.03870	
46.99	-0.1209	0.03876	
47.00	-0.1209	0.03882	
47.01	-0.1209	0.03888	
47.02	-0.1210	0.03895	
47.03	-0.1210	0.03903	
47.04	-0.1210	0.03909	
47.05	-0.1211	0.03913	
47.06	-0.1211	0.03918	
47.07	-0.1211	0.03926	
47.08	-0.1211	0.03935	
47.09	-0.1211	0.03941	
47.10	-0.1211	0.03947	
47.11	-0.1212	0.03955	
47.12	-0.1212	0.03967	
47.13	-0.1213	0.03976	
47.14	-0.1213	0.03982	
47.15	-0.1213	0.03987	
47.16	-0.1213	0.03995	
47.17	-0.1214	0.04003	
47.18	-0.1214	0.04011	
47.19	-0.1214	0.04020	
47.20	-0.1215	0.04027	
47.21	-0.1215	0.04033	
47.22	-0.1215	0.04042	
47.23	-0.1215	0.04050	
47.24	-0.1216	0.04061	
47.25	-0.1216	0.04071	
47.26	-0.1217	0.04078	
47.27	-0.1217	0.04087	
47.28	-0.1217	0.04099	
47.29	-0.1217	0.04110	
47.30	-0.1218	0.04121	
47.31	-0.1218	0.04132	
47.32	-0.1219	0.04142	
47.33	-0.1219	0.04151	
47.34	-0.1220	0.04161	
47.35	-0.1220	0.04170	
47.36	-0.1220	0.04181	
47.37	-0.1220	0.04192	
47.38	-0.1221	0.04204	
47.39	-0.1221	0.04215	
47.40	-0.1221	0.04226	
47.41	-0.1222	0.04239	
47.42	-0.1222	0.04251	
47.43	-0.1222	0.04264	
47.44	-0.1223	0.04281	
47.45	-0.1224	0.04296	
47.46	-0.1224	0.04307	
47.47	-0.1224	0.04322	
47.48	-0.1225	0.04338	
47.49	-0.1225	0.04351	
47.50	-0.1225	0.04364	
47.51	-0.1226	0.04377	
47.52	-0.1227	0.04390	
47.53	-0.1228	0.04402	
47.54	-0.1228	0.04414	
47.55	-0.1229	0.04429	
47.56	-0.1229	0.04445	
47.57	-0.1229	0.04463	
47.58	-0.1229	0.04481	
47.59	-0.1230	0.04501	
47.60	-0.1231	0.04518	
47.61	-0.1232	0.04539	
47.62	-0.1232	0.04562	
47.63	-0.1233	0.04585	
47.64	-0.1234	0.04608	
47.65	-0.1234	0.04633	
47.66	-0.1235	0.04659	
47.67	-0.1236	0.04690	
47.68	-0.1237	0.04721	
47.69	-0.1238	0.04758	
47.70	-0.1240	0.04801	
47.71	-0.1242	0.04852	
47.72	-0.1244	0.04914	
47.73	-0.1247	0.04986	
47.74	-0.1250	0.05067	
47.75	-0.1254	0.05165	
47.76	-0.1259	0.05297	
47.77	-0.1269	0.05504	
47.78	-0.1320	0.06124	
47.79	-0.1420	0.06839	
47.80	-0.1502	0.07486	
47.81	-0.1551	0.08329	
47.82	-0.1603	0.09345	
47.83	-0.1683	0.1041	
47.84	-0.1778	0.1137	
47.85	-0.1862	0.1220	
47.86	-0.1929	0.1291	
47.87	-0.1985	0.1353	
47.88	-0.2036	0.1408	
47.89	-0.2085	0.1460	
47.90	-0.2133	0.1515	
47.91	-0.2173	0.1567	
47.92	-0.2199	0.1611	
47.93	-0.2216	0.1649	
47.94	-0.2230	0.1680	
47.95	-0.2244	0.1705	
47.96	-0.2258	0.1722	
47.97	-0.2269	0.1733	
47.98	-0.2276	0.1740	
47.99	-0.2282	0.1743	
48.00	-0.2287	0.1745	
48.01	-0.2290	0.1747	
48.02	-0.2292	0.1749	
48.03	-0.2294	0.1750	
48.04	-0.2296	0.1751	
48.05	-0.2298	0.1752	
48.06	-0.2299	0.1753	
48.07	-0.2301	0.1753	
48.08	-0.2302	0.1754	
48.09	-0.2303	0.1755	
48.10	-0.2304	0.1755	
48.11	-0.2305	0.1756	
48.12	-0.2305	0.1756	
48.13	-0.2306	0.1757	
48.14	-0.2307	0.1758	
48.15	-0.2308	0.1758	
48.16	-0.2308	0.1759	
48.17	-0.2309	0.1759	
48.18	-0.2309	0.1760	
48.19	-0.2310	0.1760	
48.20	-0.2310	0.1761	
48.21	-0.2311	0.1761	
48.22	-0.2311	0.1762	
48.23	-0.2311	0.1762	
48.24	-0.2312	0.1763	
48.25	-0.2313	0.1763	
48.26	-0.2313	0.1764	
48.27	-0.2314	0.1764	
48.28	-0.2314	0.1764	
48.29	-0.2314	0.1764	
48.30	-0.2314	0.1765	
48.31	-0.2314	0.1765	
48.32	-0.2315	0.1766	
48.33	-0.2315	0.1766	
48.34	-0.2315	0.1766	
48.35	-0.2316	0.1767	
48.36	-0.2316	0.1768	
48.37	-0.2317	0.1768	
48.38	-0.2316	0.1768	
48.39	-0.2316	0.1769	
48.40	-0.2317	0.1769	
48.41	-0.2317	0.1769	
48.42	-0.2317	0.1770	
48.43	-0.2317	0.1770	
48.44	-0.2317	0.1770	
48.45	-0.2317	0.1770	
48.46	-0.2318	0.1770	
48.47	-0.2318	0.1771	
48.48	-0.2319	0.1771	
48.49	-0.2319	0.1772	
48.50	-0.2318	0.1772	
48.51	-0.2318	0.1772	
48.52	-0.2319	0.1772	
48.53	-0.2319	0.1773	
48.54	-0.2319	0.1773	
48.55	-0.2319	0.1774	
48.56	-0.2319	0.1774	
48.57	-0.2320	0.1774	
48.58	-0.2320	0.1774	
48.59	-0.2320	0.1774	
48.60	-0.2319	0.1775	
48.61	-0.2319	0.1775	
48.62	-0.2320	0.1776	
48.63	-0.2320	0.1776	
48.64	-0.2320	0.1776	
48.65	-0.2320	0.1776	
48.66	-0.2320	0.1776	
48.67	-0.2320	0.1777	
48.68	-0.2321	0.1777	
48.69	-0.2321	0.1778	
48.70	-0.2321	0.1778	
48.71	-0.2321	0.1778	
48.72	-0.2321	0.1778	
48.73	-0.2321	0.1778	
48.74	-0.2321	0.1779	
48.75	-0.2321	0.1779	
48.76	-0.2321	0.1779	
48.77	-0.2322	0.1779	
48.78	-0.2322	0.1779	
48.79	-0.2322	0.1780	
48.80	-0.2322	0.1780	
48.81	-0.2322	0.1781	
48.82	-0.2322	0.1781	
48.83	-0.2322	0.1782	
48.84	-0.2323	0.1782	
48.85	-0.2323	0.1782	
48.86	-0.2323	0.1783	
48.87	-0.2323	0.1783	
48.88	-0.2323	0.1783	
48.89	-0.2323	0.1783	
48.90	-0.2323	0.1784	
48.91	-0.2323	0.1784	
48.92	-0.2324	0.1784	
48.93	-0.2324	0.1784	
48.94	-0.2324	0.1785	
48.95	-0.2324	0.1785	
48.96	-0.2324	0.1785	
48.97	-0.2324	0.1785	
48.98	-0.2324	0.1785	
48.99	-0.2324	0.1786	
49.00	-0.2324	0.1786	
49.01	-0.2324	0.1786	
49.02	-0.2324	0.1786	
49.03	-0.2325	0.1786	
49.04	-0.2324	0.1786	
49.05	-0.2324	0.1786	
49.06	-0.2324	0.1786	
49.07	-0.2324	0.1787	
49.08	-0.2324	0.1787	
49.09	-0.2325	0.1787	
49.10	-0.2325	0.1787	
49.11	-0.2325	0.1787	
49.12	-0.2325	0.1787	
49.13	-0.2325	0.1787	
49.14	-0.2325	0.1788	
49.15	-0.2325	0.1788	
49.16	-0.2324	0.1788	
49.17	-0.2324	0.1788	
49.18	-0.2324	0.1788	
49.19	-0.2325	0.1789	
49.20	-0.2325	0.1789	
49.21	-0.2325	0.1789	
49.22	-0.2325	0.1789	
49.23	-0.2325	0.1789	
49.24	-0.2325	0.1789	
49.25	-0.2325	0.1789	
49.26	-0.2325	0.1789	
49.27	-0.2325	0.1789	
49.28	-0.2325	0.1789	
49.29	-0.2325	0.1789	
49.30	-0.2325	0.1789	
49.31	-0.2325	0.1790	
49.32	-0.2325	0.1790	
49.33	-0.2325	0.1790	
49.34	-0.2325	0.1790	
49.35	-0.2325	0.1790	
49.36	-0.2325	0.1790	
49.37	-0.2325	0.1790	
49.38	-0.2325	0.1790	
49.39	-0.2325	0.1790	
49.40	-0.2325	0.1790	
49.41	-0.2325	0.1790	
49.42	-0.2325	0.1790	
49.43	-0.2325	0.1791	
49.44	-0.2326	0.1791	
49.45	-0.2326	0.1791	
49.46	-0.2326	0.1791	
49.47	-0.2326	0.1791	
49.48	-0.2325	0.1791	
49.49	-0.2326	0.1791	
49.50	-0.2326	0.1791	
49.51	-0.2326	0.1791	
49.52	-0.2325	0.1791	
49.53	-0.2326	0.1791	
49.54	-0.2326	0.1791	
49.55	-0.2326	0.1791	
49.56	-0.2326	0.1791	
49.57	-0.2326	0.1792	
49.58	-0.2326	0.1792	
49.59	-0.2326	0.1792	
49.60	-0.2326	0.1792	
49.61	-0.2326	0.1792	
49.62	-0.2326	0.1792	
49.63	-0.2326	0.1792	
49.64	-0.2326	0.1792	
49.65	-0.2326	0.1792	
49.66	-0.2326	0.1792	
49.67	-0.2326	0.1792	
49.68	-0.2326	0.1792	
49.69	-0.2326	0.1792	
49.70	-0.2326	0.1792	
49.71	-0.2326	0.1793	
49.72	-0.2326	0.1793	
49.73	-0.2326	0.1793	
49.74	-0.2326	0.1793	
49.75	-0.2326	0.1793	
49.76	-0.2326	0.1793	
49.77	-0.2326	0.1793	
49.78	-0.2326	0.1793	
49.79	-0.2326	0.1793	
49.80	-0.2326	0.1793	
49.81	-0.2326	0.1793	
49.82	-0.2326	0.1793	
49.83	-0.2327	0.1793	
49.84	-0.2326	0.1794	
49.85	-0.2326	0.1794	
49.86	-0.2326	0.1794	
49.87	-0.2326	0.1794	
49.88	-0.2326	0.1794	
49.89	-0.2326	0.1794	
49.90	-0.2326	0.1794	
49.91	-0.2326	0.1793	
49.92	-0.2326	0.1793	
49.93	-0.2326	0.1793	
49.94	-0.2326	0.1793	
49.95	-0.2326	0.1794	
49.96	-0.2326	0.1793	
49.97	-0.2326	0.1794	
49.98	-0.2326	0.1794	
49.99	-0.2326	0.1794	
50.00	-0.2326	0.1794	
50.01	-0.2326	0.1794	
50.02	-0.2326	0.1795	
50.03	-0.2326	0.1795	
50.04	-0.2326	0.1795	
50.05	-0.2326	0.1794	
50.06	-0.2326	0.1794	
50.07	-0.2326	0.1795	
50.08	-0.2326	0.1795	
50.09	-0.2326	0.1795	
50.10	-0.2325	0.1795	
50.11	-0.2326	0.1795	
50.12	-0.2326	0.1795	
50.13	-0.2326	0.1795	
50.14	-0.2326	0.1795	
50.15	-0.2326	0.1795	
50.16	-0.2325	0.1795	
50.17	-0.2326	0.1796	
50.18	-0.2326	0.1796	
50.19	-0.2326	0.1795	
50.20	-0.2326	0.1795	
50.21	-0.2326	0.1796	
50.22	-0.2326	0.1795	
50.23	-0.2325	0.1795	
50.24	-0.2325	0.1795	
50.25	-0.2325	0.1795	
50.26	-0.2326	0.1796	
50.27	-0.2326	0.1796	
50.28	-0.2326	0.1796	
50.29	-0.2326	0.1796	
50.30	-0.2326	0.1796	
50.31	-0.2326	0.1796	
50.32	-0.2326	0.1796	
50.33	-0.2326	0.1796	
50.34	-0.2326	0.1796	
50.35	-0.2326	0.1796	
50.36	-0.2326	0.1796	
50.37	-0.2326	0.1796	
50.38	-0.2326	0.1796	
50.39	-0.2326	0.1796	
50.40	-0.2326	0.1796	
50.41	-0.2326	0.1796	
50.42	-0.2326	0.1796	
50.43	-0.2326	0.1796	
50.44	-0.2326	0.1796	
50.45	-0.2326	0.1796	
50.46	-0.2326	0.1797	
50.47	-0.2326	0.1796	
50.48	-0.2326	0.1797	
50.49	-0.2326	0.1797	
50.50	-0.2326	0.1797	
50.51	-0.2325	0.1797	
50.52	-0.2325	0.1797	
50.53	-0.2325	0.1797	
50.54	-0.2325	0.1797	
50.55	-0.2325	0.1797	
50.56	-0.2325	0.1797	
50.57	-0.2326	0.1797	
50.58	-0.2326	0.1797	
50.59	-0.2326	0.1797	
50.60	-0.2326	0.1797	
50.61	-0.2326	0.1797	
50.62	-0.2325	0.1797	
50.63	-0.2325	0.1797	
50.64	-0.2325	0.1797	
50.65	-0.2325	0.1797	
50.66	-0.2325	0.1797	
50.67	-0.2325	0.1797	
50.68	-0.2326	0.1797	
50.69	-0.2326	0.1797	
50.70	-0.2326	0.1797	
50.71	-0.2326	0.1797	
50.72	-0.2325	0.1797	
50.73	-0.2325	0.1797	
50.74	-0.2325	0.1797	
50.75	-0.2325	0.1797	
50.76	-0.2325	0.1797	
50.77	-0.2326	0.1797	
50.78	-0.2326	0.1797	
50.79	-0.2325	0.1798	
50.80	-0.2325	0.1798	
50.81	-0.2325	0.1798	
50.82	-0.2325	0.1798	
50.83	-0.2325	0.1798	
50.84	-0.2325	0.1798	
50.85	-0.2325	0.1798	
50.86	-0.2325	0.1797	
50.87	-0.2325	0.1797	
50.88	-0.2325	0.1797	
50.89	-0.2326	0.1797	
50.90	-0.2326	0.1798	
50.91	-0.2325	0.1797	
50.92	-0.2324	0.1798	
50.93	-0.2325	0.1798	
50.94	-0.2324	0.1798	
50.95	-0.2324	0.1798	
50.96	-0.2325	0.1797	
50.97	-0.2325	0.1797	
50.98	-0.2325	0.1797	
50.99	-0.2325	0.1798	
51.00	-0.2325	0.1798	
51.01	-0.2325	0.1798	
51.02	-0.2325	0.1798	
51.03	-0.2325	0.1798	
51.04	-0.2325	0.1798	
51.05	-0.2325	0.1798	
51.06	-0.2325	0.1798	
51.07	-0.2325	0.1798	
51.08	-0.2325	0.1798	
51.09	-0.2325	0.1798	
51.10	-0.2325	0.1798	
51.11	-0.2324	0.1798	
51.12	-0.2325	0.1798	
51.13	-0.2325	0.1798	
51.14	-0.2325	0.1799	
51.15	-0.2325	0.1798	
51.16	-0.2325	0.1798	
51.17	-0.2325	0.1798	
51.18	-0.2325	0.1798	
51.19	-0.2325	0.1798	
51.20	-0.2325	0.1798	
51.21	-0.2325	0.1798	
51.22	-0.2325	0.1798	
51.23	-0.2325	0.1798	
51.24	-0.2325	0.1798	
51.25	-0.2325	0.1798	
51.26	-0.2325	0.1798	
51.27	-0.2326	0.1798	
51.28	-0.2325	0.1798	
51.29	-0.2325	0.1798	
51.30	-0.2325	0.1798	
51.31	-0.2325	0.1799	
51.32	-0.2325	0.1798	
51.33	-0.2325	0.1798	
51.34	-0.2325	0.1798	
51.35	-0.2325	0.1799	
51.36	-0.2325	0.1799	
51.37	-0.2325	0.1799	
51.38	-0.2325	0.1799	
51.39	-0.2325	0.1798	
51.40	-0.2325	0.1798	
51.41	-0.2325	0.1799	
51.42	-0.2325	0.1799	
51.43	-0.2325	0.1799	
51.44	-0.2325	0.1799	
51.45	-0.2325	0.1799	
51.46	-0.2325	0.1799	
51.47	-0.2324	0.1799	
51.48	-0.2325	0.1799	
51.49	-0.2325	0.1799	
51.50	-0.2325	0.1799	
51.51	-0.2325	0.1799	
51.52	-0.2325	0.1799	
51.53	-0.2325	0.1799	
51.54	-0.2325	0.1799	
51.55	-0.2325	0.1799	
51.56	-0.2325	0.1799	
51.57	-0.2325	0.1799	
51.58	-0.2324	0.1799	
51.59	-0.2324	0.1799	
51.60	-0.2325	0.1799	
51.61	-0.2325	0.1799	
51.62	-0.2325	0.1800	
51.63	-0.2325	0.1800	
51.64	-0.2325	0.1800	
51.65	-0.2325	0.1800	
51.66	-0.2325	0.1800	
51.67	-0.2325	0.1800	
51.68	-0.2324	0.1800	
51.69	-0.2324	0.1799	
51.70	-0.2325	0.1799	
51.71	-0.2325	0.1800	
51.72	-0.2325	0.1800	
51.73	-0.2325	0.1800	
51.74	-0.2325	0.1800	
51.75	-0.2325	0.1800	
51.76	-0.2324	0.1800	
51.77	-0.2325	0.1800	
51.78	-0.2325	0.1800	
51.79	-0.2325	0.1800	
51.80	-0.2325	0.1800	
51.81	-0.2325	0.1800	
51.82	-0.2325	0.1800	
51.83	-0.2325	0.1800	
51.84	-0.2324	0.1800	
51.85	-0.2324	0.1800	
51.86	-0.2324	0.1800	
51.87	-0.2324	0.1800	
51.88	-0.2324	0.1800	
51.89	-0.2325	0.1800	
51.90	-0.2324	0.1800	
51.91	-0.2324	0.1800	
51.92	-0.2325	0.1800	
51.93	-0.2325	0.1800	
51.94	-0.2325	0.1800	
51.95	-0.2325	0.1800	
51.96	-0.2325	0.1800	
51.97	-0.2325	0.1800	
51.98	-0.2325	0.1800	
51.99	-0.2325	0.1801	
52.00	-0.2325	0.1801	
52.01	-0.2324	0.1801	
52.02	-0.2324	0.1800	
52.03	-0.2325	0.1800	
52.04	-0.2325	0.1800	
52.05	-0.2325	0.1800	
52.06	-0.2325	0.1800	
52.07	-0.2324	0.1800	
52.08	-0.2324	0.1800	
52.09	-0.2324	0.1800	
52.10	-0.2325	0.1800	
52.11	-0.2325	0.1800	
52.12	-0.2324	0.1801	
52.13	-0.2324	0.1801	
52.14	-0.2324	0.1800	
52.15	-0.2325	0.1800	
52.16	-0.2325	0.1800	
52.17	-0.2325	0.1800	
52.18	-0.2325	0.1801	
52.19	-0.2325	0.1801	
52.20	-0.2325	0.1801	
52.21	-0.2325	0.1801	
52.22	-0.2325	0.1801	
52.23	-0.2324	0.1801	
52.24	-0.2324	0.1801	
52.25	-0.2325	0.1801	
52.26	-0.2325	0.1801	
52.27	-0.2325	0.1801	
52.28	-0.2324	0.1801	
52.29	-0.2324	0.1801	
52.30	-0.2325	0.1801	
52.31	-0.2325	0.1801	
52.32	-0.2324	0.1801	
52.33	-0.2325	0.1801	
52.34	-0.2324	0.1801	
52.35	-0.2324	0.1801	
52.36	-0.2325	0.1801	
52.37	-0.2325	0.1801	
52.38	-0.2325	0.1801	
52.39	-0.2325	0.1801	
52.40	-0.2324	0.1801	
52.41	-0.2324	0.1801	
52.42	-0.2325	0.1801	
52.43	-0.2325	0.1801	
52.44	-0.2325	0.1802	
52.45	-0.2325	0.1801	
52.46	-0.2325	0.1801	
52.47	-0.2324	0.1801	
52.48	-0.2325	0.1801	
52.49	-0.2325	0.1801	
52.50	-0.2325	0.1801	
52.51	-0.2325	0.1801	
52.52	-0.2324	0.1801	
52.53	-0.2325	0.1801	
52.54	-0.2325	0.1801	
52.55	-0.2325	0.1801	
52.56	-0.2325	0.1801	
52.57	-0.2325	0.1801	
52.58	-0.2324	0.1802	
52.59	-0.2324	0.1802	
52.60	-0.2324	0.1802	
52.61	-0.2325	0.1802	
52.62	-0.2325	0.1802	
52.63	-0.2325	0.1802	
52.64	-0.2325	0.1802	
52.65	-0.2324	0.1802	
52.66	-0.2324	0.1802	
52.67	-0.2325	0.1802	
52.68	-0.2324	0.1802	
52.69	-0.2324	0.1802	
52.70	-0.2325	0.1802	
52.71	-0.2325	0.1802	
52.72	-0.2325	0.1802	
52.73	-0.2325	0.1802	
52.74	-0.2325	0.1802	
52.75	-0.2325	0.1802	
52.76	-0.2325	0.1802	
52.77	-0.2325	0.1802	
52.78	-0.2325	0.1802	
52.79	-0.2325	0.1802	
52.80	-0.2325	0.1802	
52.81	-0.2325	0.1802	
52.82	-0.2325	0.1803	
52.83	-0.2325	0.1802	
52.84	-0.2325	0.1803	
52.85	-0.2325	0.1803	
52.86	-0.2325	0.1802	
52.87	-0.2325	0.1802	
52.88	-0.2324	0.1803	
52.89	-0.2324	0.1803	
52.90	-0.2324	0.1803	
52.91	-0.2324	0.1803	
52.92	-0.2325	0.1803	
52.93	-0.2325	0.1803	
52.94	-0.2324	0.1803	
52.95	-0.2325	0.1803	
52.96	-0.2325	0.1803	
52.97	-0.2325	0.1803	
52.98	-0.2325	0.1803	
52.99	-0.2325	0.1803	
53.00	-0.2325	0.1803	
53.01	-0.2325	0.1803	
53.02	-0.2325	0.1803	
53.03	-0.2325	0.1803	
53.04	-0.2325	0.1803	
53.05	-0.2325	0.1803	
53.06	-0.2325	0.1803	
53.07	-0.2325	0.1803	
53.08	-0.2324	0.1803	
53.09	-0.2325	0.1803	
53.10	-0.2325	0.1803	
53.11	-0.2325	0.1803	
53.12	-0.2325	0.1803	
53.13	-0.2325	0.1803	
53.14	-0.2325	0.1803	
53.15	-0.2325	0.1803	
53.16	-0.2325	0.1803	
53.17	-0.2325	0.1803	
53.18	-0.2324	0.1803	
53.19	-0.2324	0.1803	
53.20	-0.2324	0.1803	
53.21	-0.2325	0.1803	
53.22	-0.2325	0.1803	
53.23	-0.2325	0.1803	
53.24	-0.2325	0.1803	
53.25	-0.2325	0.1803	
53.26	-0.2325	0.1803	
53.27	-0.2325	0.1803	
53.28	-0.2325	0.1803	
53.29	-0.2325	0.1803	
53.30	-0.2325	0.1803	
53.31	-0.2324	0.1803	
53.32	-0.2324	0.1803	
53.33	-0.2325	0.1803	
53.34	-0.2325	0.1804	
53.35	-0.2325	0.1804	
53.36	-0.2325	0.1804	
53.37	-0.2325	0.1804	
53.38	-0.2325	0.1804	
53.39	-0.2324	0.1804	
53.40	-0.2325	0.1804	
53.41	-0.2325	0.1803	
53.42	-0.2325	0.1803	
53.43	-0.2325	0.1803	
53.44	-0.2325	0.1804	
53.45	-0.2324	0.1804	
53.46	-0.2324	0.1804	
53.47	-0.2324	0.1804	
53.48	-0.2324	0.1804	
53.49	-0.2325	0.1804	
53.50	-0.2325	0.1804	
53.51	-0.2325	0.1803	
53.52	-0.2325	0.1803	
53.53	-0.2325	0.1803	
53.54	-0.2325	0.1804	
53.55	-0.2325	0.1804	
53.56	-0.2325	0.1804	
53.57	-0.2324	0.1804	
53.58	-0.2325	0.1804	
53.59	-0.2325	0.1804	
53.60	-0.2325	0.1804	
53.61	-0.2325	0.1804	
53.62	-0.2325	0.1804	
53.63	-0.2325	0.1804	
53.64	-0.2325	0.1804	
53.65	-0.2325	0.1804	
53.66	-0.2325	0.1804	
53.67	-0.2325	0.1804	
53.68	-0.2325	0.1804	
53.69	-0.2325	0.1804	
53.70	-0.2325	0.1804	
53.71	-0.2325	0.1804	
53.72	-0.2325	0.1804	
53.73	-0.2325	0.1804	
53.74	-0.2325	0.1804	
53.75	-0.2325	0.1804	
53.76	-0.2325	0.1804	
53.77	-0.2325	0.1804	
53.78	-0.2325	0.1804	
53.79	-0.2325	0.1804	
53.80	-0.2325	0.1804	
53.81	-0.2325	0.1804	
53.82	-0.2325	0.1804	
53.83	-0.2325	0.1804	
53.84	-0.2325	0.1805	
53.85	-0.2325	0.1804	
53.86	-0.2325	0.1804	
53.87	-0.2325	0.1804	
53.88	-0.2325	0.1804	
53.89	-0.2325	0.1804	
53.90	-0.2325	0.1805	
53.91	-0.2325	0.1804	
53.92	-0.2325	0.1804	
53.93	-0.2324	0.1804	
53.94	-0.2324	0.1805	
53.95	-0.2324	0.1805	
53.96	-0.2324	0.1805	
53.97	-0.2325	0.1805	
53.98	-0.2325	0.1805	
53.99	-0.2325	0.1805	
54.00	-0.2325	0.1805	
54.01	-0.2325	0.1805	
54.02	-0.2325	0.1805	
54.03	-0.2325	0.1805	
54.04	-0.2325	0.1805	
54.05	-0.2325	0.1805	
54.06	-0.2325	0.1805	
54.07	-0.2325	0.1805	
54.08	-0.2325	0.1805	
54.09	-0.2325	0.1805	
54.10	-0.2325	0.1805	
54.11	-0.2325	0.1805	
54.12	-0.2325	0.1805	
54.13	-0.2325	0.1805	
54.14	-0.2325	0.1805	
54.15	-0.2325	0.1805	
54.16	-0.2325	0.1805	
54.17	-0.2325	0.1805	
54.18	-0.2325	0.1805	
54.19	-0.2325	0.1805	
54.20	-0.2325	0.1805	
54.21	-0.2325	0.1805	
54.22	-0.2325	0.1805	
54.23	-0.2325	0.1805	
54.24	-0.2325	0.1805	
54.25	-0.2325	0.1805	
54.26	-0.2325	0.1805	
54.27	-0.2325	0.1805	
54.28	-0.2325	0.1805	
54.29	-0.2325	0.1805	
54.30	-0.2325	0.1805	
54.31	-0.2325	0.1805	
54.32	-0.2325	0.1805	
54.33	-0.2325	0.1805	
54.34	-0.2325	0.1805	
54.35	-0.2325	0.1805	
54.36	-0.2325	0.1805	
54.37	-0.2325	0.1805	
54.38	-0.2325	0.1805	
54.39	-0.2325	0.1805	
54.40	-0.2325	0.1805	
54.41	-0.2325	0.1805	
54.42	-0.2325	0.1805	
54.43	-0.2325	0.1805	
54.44	-0.2325	0.1805	
54.45	-0.2325	0.1805	
54.46	-0.2325	0.1805	
54.47	-0.2325	0.1805	
54.48	-0.2325	0.1805	
54.49	-0.2325	0.1805	
54.50	-0.2325	0.1806	
54.51	-0.2325	0.1806	
54.52	-0.2325	0.1805	
54.53	-0.2325	0.1805	
54.54	-0.2325	0.1805	
54.55	-0.2325	0.1805	
54.56	-0.2325	0.1805	
54.57	-0.2325	0.1805	
54.58	-0.2325	0.1805	
54.59	-0.2325	0.1805	
54.60	-0.2325	0.1805	
54.61	-0.2325	0.1805	
54.62	-0.2325	0.1805	
54.63	-0.2325	0.1805	
54.64	-0.2325	0.1805	
54.65	-0.2325	0.1805	
54.66	-0.2326	0.1806	
54.67	-0.2325	0.1806	
54.68	-0.2325	0.1805	
54.69	-0.2325	0.1805	
54.70	-0.2326	0.1806	
54.71	-0.2326	0.1806	
54.72	-0.2325	0.1806	
54.73	-0.2325	0.1806	
54.74	-0.2326	0.1806	
54.75	-0.2325	0.1806	
54.76	-0.2325	0.1806	
54.77	-0.2325	0.1806	
54.78	-0.2326	0.1806	
54.79	-0.2326	0.1806	
54.80	-0.2325	0.1806	
54.81	-0.2325	0.1806	
54.82	-0.2325	0.1806	
54.83	-0.2326	0.1806	
54.84	-0.2326	0.1806	
54.85	-0.2325	0.1806	
54.86	-0.2325	0.1806	
54.87	-0.2325	0.1806	
54.88	-0.2325	0.1806	
54.89	-0.2325	0.1806	
54.90	-0.2325	0.1806	
54.91	-0.2325	0.1806	
54.92	-0.2325	0.1806	
54.93	-0.2325	0.1806	
54.94	-0.2325	0.1807	
54.95	-0.2325	0.1807	
54.96	-0.2325	0.1806	
54.97	-0.2325	0.1806	
54.98	-0.2325	0.1807	
54.99	-0.2325	0.1806	
55.00	-0.2325	0.1806	
55.01	-0.2325	0.1806	
55.02	-0.2325	0.1806	
55.03	-0.2325	0.1807	
55.04	-0.2325	0.1807	
55.05	-0.2325	0.1807	
55.06	-0.2326	0.1806	
55.07	-0.2326	0.1807	
55.08	-0.2325	0.1807	
55.09	-0.2325	0.1807	
55.10	-0.2325	0.1807	
55.11	-0.2326	0.1807	
55.12	-0.2326	0.1807	
55.13	-0.2326	0.1807	
55.14	-0.2326	0.1807	
55.15	-0.2326	0.1807	
55.16	-0.2326	0.1807	
55.17	-0.2325	0.1807	
55.18	-0.2325	0.1806	
55.19	-0.2326	0.1806	
55.20	-0.2326	0.1806	
55.21	-0.2326	0.1806	
55.22	-0.2326	0.1806	
55.23	-0.2326	0.1806	
55.24	-0.2325	0.1807	
55.25	-0.2325	0.1807	
55.26	-0.2325	0.1807	
55.27	-0.2325	0.1807	
55.28	-0.2325	0.1806	
55.29	-0.2325	0.1806	
55.30	-0.2325	0.1807	
55.31	-0.2325	0.1807	
55.32	-0.2325	0.1807	
55.33	-0.2325	0.1807	
55.34	-0.2325	0.1807	
55.35	-0.2325	0.1807	
55.36	-0.2326	0.1807	
55.37	-0.2326	0.1807	
55.38	-0.2325	0.1807	
55.39	-0.2325	0.1807	
55.40	-0.2325	0.1807	
55.41	-0.2326	0.1807	
55.42	-0.2325	0.1807	
55.43	-0.2326	0.1807	
55.44	-0.2326	0.1807	
55.45	-0.2326	0.1807	
55.46	-0.2325	0.1807	
55.47	-0.2325	0.1807	
55.48	-0.2325	0.1807	
55.49	-0.2325	0.1807	
55.50	-0.2325	0.1807	
55.51	-0.2326	0.1807	
55.52	-0.2326	0.1807	
55.53	-0.2326	0.1807	
55.54	-0.2326	0.1807	
55.55	-0.2326	0.1807	
55.56	-0.2326	0.1807	
55.57	-0.2326	0.1807	
55.58	-0.2325	0.1807	
55.59	-0.2325	0.1807	
55.60	-0.2326	0.1807	
55.61	-0.2326	0.1807	
55.62	-0.2326	0.1807	
55.63	-0.2326	0.1807	
55.64	-0.2326	0.1807	
55.65	-0.2326	0.1807	
55.66	-0.2326	0.1807	
55.67	-0.2325	0.1807	
55.68	-0.2325	0.1807	
55.69	-0.2326	0.1807	
55.70	-0.2326	0.1807	
55.71	-0.2326	0.1807	
55.72	-0.2326	0.1807	
55.73	-0.2326	0.1807	
55.74	-0.2326	0.1807	
55.75	-0.2325	0.1807	
55.76	-0.2325	0.1807	
55.77	-0.2326	0.1807	
55.78	-0.2326	0.1807	
55.79	-0.2326	0.1808	
55.80	-0.2326	0.1808	
55.81	-0.2325	0.1808	
55.82	-0.2325	0.1808	
55.83	-0.2326	0.1808	
55.84	-0.2326	0.1808	
55.85	-0.2326	0.1807	
55.86	-0.2326	0.1807	
55.87	-0.2325	0.1807	
55.88	-0.2325	0.1807	
55.89	-0.2326	0.1807	
55.90	-0.2326	0.1807	
55.91	-0.2326	0.1807	
55.92	-0.2325	0.1807	
55.93	-0.2326	0.1807	
55.94	-0.2326	0.1807	
55.95	-0.2326	0.1808	
55.96	-0.2326	0.1808	
55.97	-0.2326	0.1808	
55.98	-0.2326	0.1808	
55.99	-0.2326	0.1807	
56.00	-0.2326	0.1807	
56.01	-0.2326	0.1807	
56.02	-0.2326	0.1807	
56.03	-0.2326	0.1807	
56.04	-0.2326	0.1807	
56.05	-0.2326	0.1807	
56.06	-0.2326	0.1808	
56.07	-0.2326	0.1808	
56.08	-0.2326	0.1808	
56.09	-0.2326	0.1808	
56.10	-0.2326	0.1808	
56.11	-0.2326	0.1808	
56.12	-0.2326	0.1808	
56.13	-0.2326	0.1807	
56.14	-0.2326	0.1807	
56.15	-0.2326	0.1808	
56.16	-0.2326	0.1808	
56.17	-0.2326	0.1808	
56.18	-0.2326	0.1808	
56.19	-0.2326	0.1808	
56.20	-0.2326	0.1808	
56.21	-0.2326	0.1808	
56.22	-0.2326	0.1808	
56.23	-0.2326	0.1808	
56.24	-0.2326	0.1808	
56.25	-0.2326	0.1808	
56.26	-0.2326	0.1808	
56.27	-0.2326	0.1808	
56.28	-0.2326	0.1808	
56.29	-0.2326	0.1808	
56.30	-0.2326	0.1808	
56.31	-0.2326	0.1808	
56.32	-0.2326	0.1808	
56.33	-0.2326	0.1808	
56.34	-0.2326	0.1808	
56.35	-0.2326	0.1808	
56.36	-0.2326	0.1808	
56.37	-0.2326	0.1808	
56.38	-0.2326	0.1808	
56.39	-0.2326	0.1808	
56.40	-0.2326	0.1808	
56.41	-0.2326	0.1808	
56.42	-0.2326	0.1808	
56.43	-0.2326	0.1808	
56.44	-0.2326	0.1808	
56.45	-0.2326	0.1809	
56.46	-0.2326	0.1808	
56.47	-0.2326	0.1808	
56.48	-0.2326	0.1808	
56.49	-0.2326	0.1808	
56.50	-0.2326	0.1808	
56.51	-0.2326	0.1808	
56.52	-0.2326	0.1808	
56.53	-0.2327	0.1808	
56.54	-0.2327	0.1808	
56.55	-0.2327	0.1808	
56.56	-0.2327	0.1808	
56.57	-0.2327	0.1808	
56.58	-0.2327	0.1808	
56.59	-0.2326	0.1808	
56.60	-0.2326	0.1808	
56.61	-0.2326	0.1808	
56.62	-0.2326	0.1808	
56.63	-0.2326	0.1808	
56.64	-0.2327	0.1808	
56.65	-0.2327	0.1808	
56.66	-0.2327	0.1808	
56.67	-0.2327	0.1808	
56.68	-0.2326	0.1808	
56.69	-0.2326	0.1809	
56.70	-0.2326	0.1809	
56.71	-0.2326	0.1808	
56.72	-0.2326	0.1808	
56.73	-0.2326	0.1808	
56.74	-0.2326	0.1808	
56.75	-0.2326	0.1809	
56.76	-0.2326	0.1809	
56.77	-0.2327	0.1808	
56.78	-0.2327	0.1808	
56.79	-0.2326	0.1808	
56.80	-0.2326	0.1808	
56.81	-0.2326	0.1808	
56.82	-0.2326	0.1808	
56.83	-0.2326	0.1808	
56.84	-0.2326	0.1808	
56.85	-0.2326	0.1809	
56.86	-0.2326	0.1809	
56.87	-0.2327	0.1809	
56.88	-0.2327	0.1809	
56.89	-0.2327	0.1809	
56.90	-0.2326	0.1809	
56.91	-0.2326	0.1809	
56.92	-0.2326	0.1809	
56.93	-0.2326	0.1809	
56.94	-0.2326	0.1809	
56.95	-0.2327	0.1809	
56.96	-0.2327	0.1809	
56.97	-0.2327	0.1809	
56.98	-0.2327	0.1809	
56.99	-0.2327	0.1809	
57.00	-0.2326	0.1809	
57.01	-0.2326	0.1809	
57.02	-0.2327	0.1809	
57.03	-0.2327	0.1809	
57.04	-0.2326	0.1809	
57.05	-0.2326	0.1809	
57.06	-0.2327	0.1809	
57.07	-0.2327	0.1809	
57.08	-0.2327	0.1809	
57.09	-0.2326	0.1809	
57.10	-0.2327	0.1809	
57.11	-0.2327	0.1809	
57.12	-0.2327	0.1809	
57.13	-0.2326	0.1809	
57.14	-0.2327	0.1809	
57.15	-0.2327	0.1809	
57.16	-0.2327	0.1809	
57.17	-0.2327	0.1809	
57.18	-0.2327	0.1809	
57.19	-0.2327	0.1809	
57.20	-0.2327	0.1809	
57.21	-0.2327	0.1809	
57.22	-0.2327	0.1809	
57.23	-0.2327	0.1809	
57.24	-0.2327	0.1809	
57.25	-0.2327	0.1809	
57.26	-0.2327	0.1809	
57.27	-0.2327	0.1809	
57.28	-0.2327	0.1809	
57.29	-0.2327	0.1809	
57.30	-0.2327	0.1809	
57.31	-0.2328	0.1809	
57.32	-0.2327	0.1810	
57.33	-0.2327	0.1810	
57.34	-0.2327	0.1810	
57.35	-0.2327	0.1810	
57.36	-0.2327	0.1810	
57.37	-0.2326	0.1809	
57.38	-0.2326	0.1809	
57.39	-0.2327	0.1809	
57.40	-0.2327	0.1810	
57.41	-0.2327	0.1810	
57.42	-0.2327	0.1809	
57.43	-0.2327	0.1809	
57.44	-0.2327	0.1810	
57.45	-0.2327	0.1810	
57.46	-0.2328	0.1810	
57.47	-0.2327	0.1810	
57.48	-0.2327	0.1810	
57.49	-0.2327	0.1809	
57.50	-0.2327	0.1809	
57.51	-0.2327	0.1810	
57.52	-0.2327	0.1810	
57.53	-0.2327	0.1810	
57.54	-0.2327	0.1810	
57.55	-0.2327	0.1810	
57.56	-0.2327	0.1810	
57.57	-0.2327	0.1810	
57.58	-0.2327	0.1810	
57.59	-0.2327	0.1810	
57.60	-0.2327	0.1810	
57.61	-0.2328	0.1810	
57.62	-0.2328	0.1810	
57.63	-0.2327	0.1810	
57.64	-0.2327	0.1810	
57.65	-0.2327	0.1810	
57.66	-0.2327	0.1810	
57.67	-0.2327	0.1810	
57.68	-0.2327	0.1810	
57.69	-0.2327	0.1810	
57.70	-0.2327	0.1810	
57.71	-0.2327	0.1810	
57.72	-0.2327	0.1810	
57.73	-0.2327	0.1810	
57.74	-0.2327	0.1810	
57.75	-0.2327	0.1810	
57.76	-0.2327	0.1810	
57.77	-0.2327	0.1810	
57.78	-0.2327	0.1810	
57.79	-0.2327	0.1810	
57.80	-0.2327	0.1810	
57.81	-0.2327	0.1810	
57.82	-0.2328	0.1810	
57.83	-0.2327	0.1810	
57.84	-0.2327	0.1810	
57.85	-0.2327	0.1810	
57.86	-0.2327	0.1810	
57.87	-0.2327	0.1810	
57.88	-0.2327	0.1810	
57.89	-0.2327	0.1810	
57.90	-0.2327	0.1810	
57.91	-0.2327	0.1810	
57.92	-0.2327	0.1810	
57.93	-0.2327	0.1810	
57.94	-0.2327	0.1811	
57.95	-0.2327	0.1811	
57.96	-0.2327	0.1810	
57.97	-0.2327	0.1810	
57.98	-0.2327	0.1810	
57.99	-0.2327	0.1810	
58.00	-0.2327	0.1810	
58.01	-0.2327	0.1811	
58.02	-0.2327	0.1811	
58.03	-0.2327	0.1811	
58.04	-0.2327	0.1811	
58.05	-0.2328	0.1810	
58.06	-0.2328	0.1811	
58.07	-0.2328	0.1811	
58.08	-0.2328	0.1811	
58.09	-0.2328	0.1811	
58.10	-0.2328	0.1811	
58.11	-0.2327	0.1810	
58.12	-0.2328	0.1810	
58.13	-0.2328	0.1811	
58.14	-0.2328	0.1811	
58.15	-0.2328	0.1811	
58.16	-0.2328	0.1811	
58.17	-0.2328	0.1810	
58.18	-0.2328	0.1810	
58.19	-0.2328	0.1810	
58.20	-0.2328	0.1811	
58.21	-0.2328	0.1810	
58.22	-0.2328	0.1811	
58.23	-0.2328	0.1811	
58.24	-0.2328	0.1811	
58.25	-0.2328	0.1810	
58.26	-0.2328	0.1811	
58.27	-0.2328	0.1811	
58.28	-0.2328	0.1811	
58.29	-0.2328	0.1811	
58.30	-0.2328	0.1811	
58.31	-0.2328	0.1811	
58.32	-0.2328	0.1811	
58.33	-0.2328	0.1811	
58.34	-0.2328	0.1811	
58.35	-0.2328	0.1811	
58.36	-0.2328	0.1811	
58.37	-0.2327	0.1811	
58.38	-0.2327	0.1811	
58.39	-0.2327	0.1811	
58.40	-0.2327	0.1811	
58.41	-0.2327	0.1811	
58.42	-0.2327	0.1811	
58.43	-0.2327	0.1811	
58.44	-0.2328	0.1811	
58.45	-0.2328	0.1811	
58.46	-0.2328	0.1811	
58.47	-0.2328	0.1811	
58.48	-0.2328	0.1811	
58.49	-0.2328	0.1811	
58.50	-0.2328	0.1811	
58.51	-0.2328	0.1811	
58.52	-0.2328	0.1811	
58.53	-0.2328	0.1811	
58.54	-0.2328	0.1811	
58.55	-0.2328	0.1811	
58.56	-0.2328	0.1811	
58.57	-0.2327	0.1811	
58.58	-0.2327	0.1811	
58.59	-0.2328	0.1811	
58.60	-0.2328	0.1811	
58.61	-0.2328	0.1812	
58.62	-0.2327	0.1811	
58.63	-0.2327	0.1811	
58.64	-0.2328	0.1811	
58.65	-0.2328	0.1811	
58.66	-0.2328	0.1811	
58.67	-0.2328	0.1811	
58.68	-0.2328	0.1811	
58.69	-0.2328	0.1811	
58.70	-0.2328	0.1811	
58.71	-0.2328	0.1811	
58.72	-0.2327	0.1811	
58.73	-0.2327	0.1811	
58.74	-0.2327	0.1811	
58.75	-0.2327	0.1811	
58.76	-0.2328	0.1811	
58.77	-0.2328	0.1811	
58.78	-0.2328	0.1811	
58.79	-0.2328	0.1811	
58.80	-0.2328	0.1811	
58.81	-0.2327	0.1811	
58.82	-0.2328	0.1811	
58.83	-0.2328	0.1811	
58.84	-0.2327	0.1811	
58.85	-0.2327	0.1811	
58.86	-0.2328	0.1811	
58.87	-0.2328	0.1811	
58.88	-0.2328	0.1811	
58.89	-0.2327	0.1811	
58.90	-0.2327	0.1811	
58.91	-0.2327	0.1811	
58.92	-0.2328	0.1811	
58.93	-0.2328	0.1811	
58.94	-0.2327	0.1811	
58.95	-0.2327	0.1811	
58.96	-0.2327	0.1812	
58.97	-0.2328	0.1811	
58.98	-0.2328	0.1812	
58.99	-0.2328	0.1812	
59.00	-0.2328	0.1812	
59.01	-0.2328	0.1811	
59.02	-0.2328	0.1811	
59.03	-0.2328	0.1812	
59.04	-0.2328	0.1812	
59.05	-0.2328	0.1812	
59.06	-0.2328	0.1812	
59.07	-0.2328	0.1812	
59.08	-0.2328	0.1812	
59.09	-0.2328	0.1811	
59.10	-0.2327	0.1811	
59.11	-0.2328	0.1811	
59.12	-0.2328	0.1811	
59.13	-0.2328	0.1812	
59.14	-0.2328	0.1812	
59.15	-0.2328	0.1812	
59.16	-0.2328	0.1812	
59.17	-0.2328	0.1811	
59.18	-0.2328	0.1811	
59.19	-0.2328	0.1811	
59.20	-0.2328	0.1811	
59.21	-0.2328	0.1812	
59.22	-0.2328	0.1812	
59.23	-0.2328	0.1812	
59.24	-0.2328	0.1812	
59.25	-0.2328	0.1812	
59.26	-0.2328	0.1812	
59.27	-0.2328	0.1812	
59.28	-0.2328	0.1812	
59.29	-0.2328	0.1812	
59.30	-0.2328	0.1811	
59.31	-0.2328	0.1812	
59.32	-0.2328	0.1812	
59.33	-0.2328	0.1812	
59.34	-0.2328	0.1812	
59.35	-0.2328	0.1812	
59.36	-0.2329	0.1812	
59.37	-0.2328	0.1812	
59.38	-0.2328	0.1812	
59.39	-0.2328	0.1812	
59.40	-0.2328	0.1812	
59.41	-0.2328	0.1812	
59.42	-0.2328	0.1812	
59.43	-0.2328	0.1812	
59.44	-0.2328	0.1812	
59.45	-0.2328	0.1812	
59.46	-0.2328	0.1812	
59.47	-0.2328	0.1812	
59.48	-0.2328	0.1812	
59.49	-0.2328	0.1812	
59.50	-0.2328	0.1812	
59.51	-0.2328	0.1812	
59.52	-0.2328	0.1813	
59.53	-0.2328	0.1813	
59.54	-0.2328	0.1812	
59.55	-0.2328	0.1813	
59.56	-0.2328	0.1813	
59.57	-0.2328	0.1813	
59.58	-0.2328	0.1812	
59.59	-0.2328	0.1813	
59.60	-0.2328	0.1813	
59.61	-0.2328	0.1813	
59.62	-0.2328	0.1812	
59.63	-0.2328	0.1812	
59.64	-0.2328	0.1812	
59.65	-0.2329	0.1812	
59.66	-0.2329	0.1812	
59.67	-0.2328	0.1812	
59.68	-0.2328	0.1812	
59.69	-0.2328	0.1812	
59.70	-0.2328	0.1812	
59.71	-0.2328	0.1812	
59.72	-0.2328	0.1812	
59.73	-0.2328	0.1813	
59.74	-0.2328	0.1813	
59.75	-0.2328	0.1812	
59.76	-0.2328	0.1812	
59.77	-0.2328	0.1812	
59.78	-0.2328	0.1812	
59.79	-0.2328	0.1812	
59.80	-0.2328	0.1812	
59.81	-0.2328	0.1812	
59.82	-0.2328	0.1812	
59.83	-0.2329	0.1812	
59.84	-0.2328	0.1813	
59.85	-0.2328	0.1813	
59.86	-0.2328	0.1813	
59.87	-0.2328	0.1813	
59.88	-0.2328	0.1813	
59.89	-0.2328	0.1813	
59.90	-0.2328	0.1813	
59.91	-0.2328	0.1813	
59.92	-0.2328	0.1813	
59.93	-0.2329	0.1813	
59.94	-0.2328	0.1813	
59.95	-0.2328	0.1813	
59.96	-0.2328	0.1813	
59.97	-0.2328	0.1813	
59.98	-0.2328	0.1813	
59.99	-0.2328	0.1813	
60.00	-0.2328	0.1813	
60.01	-0.2328	0.1813	
60.02	-0.2328	0.1813	
60.03	-0.2328	0.1813	
60.04	-0.2328	0.1813	
60.05	-0.2328	0.1812	
60.06	-0.2328	0.1808	
60.07	-0.2327	0.1797	
60.08	-0.2330	0.1780	
60.09	-0.2337	0.1757	
60.10	-0.2349	0.1730	
60.11	-0.2365	0.1701	
60.12	-0.2384	0.1674	
60.13	-0.2404	0.1646	
60.14	-0.2427	0.1619	
60.15	-0.2453	0.1588	
60.16	-0.2484	0.1554	
60.17	-0.2519	0.1515	
60.18	-0.2551	0.1476	
60.19	-0.2576	0.1445	
60.20	-0.2593	0.1428	
60.21	-0.2605	0.1423	
60.22	-0.2612	0.1420	
60.23	-0.2615	0.1417	
60.24	-0.2616	0.1416	
60.25	-0.2615	0.1417	
60.26	-0.2611	0.1425	
60.27	-0.2603	0.1438	
60.28	-0.2600	0.1449	
60.29	-0.2601	0.1456	
60.30	-0.2601	0.1459	
60.31	-0.2600	0.1460	
60.32	-0.2600	0.1459	
60.33	-0.2600	0.1457	
60.34	-0.2600	0.1458	
60.35	-0.2600	0.1458	
60.36	-0.2600	0.1459	
60.37	-0.2600	0.1458	
60.38	-0.2600	0.1458	
60.39	-0.2600	0.1458	
60.40	-0.2600	0.1458	
60.41	-0.2600	0.1459	
60.42	-0.2600	0.1459	
60.43	-0.2600	0.1459	
60.44	-0.2600	0.1458	
60.45	-0.2600	0.1458	
60.46	-0.2600	0.1459	
60.47	-0.2600	0.1459	
60.48	-0.2600	0.1459	
60.49	-0.2600	0.1459	
60.50	-0.2600	0.1459	
60.51	-0.2599	0.1459	
60.52	-0.2600	0.1459	
60.53	-0.2600	0.1459	
60.54	-0.2600	0.1459	
60.55	-0.2600	0.1459	
60.56	-0.2600	0.1459	
60.57	-0.2600	0.1459	
60.58	-0.2601	0.1459	
60.59	-0.2601	0.1459	
60.60	-0.2600	0.1459	
60.61	-0.2600	0.1459	
60.62	-0.2600	0.1459	
60.63	-0.2600	0.1459	
60.64	-0.2600	0.1459	
60.65	-0.2600	0.1459	
60.66	-0.2600	0.1459	
60.67	-0.2600	0.1459	
60.68	-0.2600	0.1459	
60.69	-0.2600	0.1459	
60.70	-0.2600	0.1459	
60.71	-0.2600	0.1460	
60.72	-0.2600	0.1459	
60.73	-0.2600	0.1459	
60.74	-0.2600	0.1459	
60.75	-0.2600	0.1459	
60.76	-0.2600	0.1459	
60.77	-0.2599	0.1459	
60.78	-0.2600	0.1459	
60.79	-0.2600	0.1459	
60.80	-0.2600	0.1460	
60.81	-0.2600	0.1460	
60.82	-0.2600	0.1460	
60.83	-0.2600	0.1460	
60.84	-0.2600	0.1460	
60.85	-0.2599	0.1460	
60.86	-0.2600	0.1460	
60.87	-0.2600	0.1460	
60.88	-0.2600	0.1460	
60.89	-0.2600	0.1460	
60.90	-0.2600	0.1460	
60.91	-0.2600	0.1460	
60.92	-0.2601	0.1460	
60.93	-0.2600	0.1460	
60.94	-0.2600	0.1460	
60.95	-0.2600	0.1460	
60.96	-0.2600	0.1460	
60.97	-0.2600	0.1460	
60.98	-0.2600	0.1460	
60.99	-0.2600	0.1460	
61.00	-0.2600	0.1460	
61.01	-0.2600	0.1460	
61.02	-0.2600	0.1460	
61.03	-0.2600	0.1460	
61.04	-0.2600	0.1460	
61.05	-0.2600	0.1460	
61.06	-0.2600	0.1460	
61.07	-0.2600	0.1460	
61.08	-0.2600	0.1461	
61.09	-0.2600	0.1460	
61.10	-0.2600	0.1460	
61.11	-0.2600	0.1460	
61.12	-0.2600	0.1460	
61.13	-0.2600	0.1460	
61.14	-0.2600	0.1460	
61.15	-0.2600	0.1460	
61.16	-0.2600	0.1460	
61.17	-0.2600	0.1460	
61.18	-0.2600	0.1460	
61.19	-0.2600	0.1460	
61.20	-0.2600	0.1460	
61.21	-0.2600	0.1460	
61.22	-0.2600	0.1460	
61.23	-0.2600	0.1460	
61.24	-0.2600	0.1460	
61.25	-0.2600	0.1460	
61.26	-0.2600	0.1460	
61.27	-0.2600	0.1460	
61.28	-0.2600	0.1459	
61.29	-0.2600	0.1460	
61.30	-0.2600	0.1460	
61.31	-0.2600	0.1460	
61.32	-0.2601	0.1460	
61.33	-0.2600	0.1460	
61.34	-0.2600	0.1460	
61.35	-0.2600	0.1460	
61.36	-0.2600	0.1460	
61.37	-0.2600	0.1460	
61.38	-0.2600	0.1460	
61.39	-0.2600	0.1460	
61.40	-0.2600	0.1460	
61.41	-0.2600	0.1460	
61.42	-0.2600	0.1460	
61.43	-0.2600	0.1460	
61.44	-0.2600	0.1461	
61.45	-0.2600	0.1460	
61.46	-0.2599	0.1460	
61.47	-0.2600	0.1460	
61.48	-0.2599	0.1460	
61.49	-0.2599	0.1460	
61.50	-0.2599	0.1460	
61.51	-0.2598	0.1460	
61.52	-0.2598	0.1461	
61.53	-0.2597	0.1461	
61.54	-0.2596	0.1462	
61.55	-0.2595	0.1463	
61.56	-0.2594	0.1466	
61.57	-0.2593	0.1468	
61.58	-0.2592	0.1469	
61.59	-0.2592	0.1469	
61.60	-0.2593	0.1468	
61.61	-0.2594	0.1465	
61.62	-0.2598	0.1460	
61.63	-0.2603	0.1454	
61.64	-0.2607	0.1449	
61.65	-0.2610	0.1445	
61.66	-0.2614	0.1442	
61.67	-0.2617	0.1438	
61.68	-0.2620	0.1435	
61.69	-0.2622	0.1432	
61.70	-0.2625	0.1429	
61.71	-0.2627	0.1427	
61.72	-0.2628	0.1425	
61.73	-0.2629	0.1424	
61.74	-0.2630	0.1423	
61.75	-0.2632	0.1421	
61.76	-0.2634	0.1420	
61.77	-0.2635	0.1418	
61.78	-0.2636	0.1416	
61.79	-0.2637	0.1415	
61.80	-0.2637	0.1414	
61.81	-0.2637	0.1413	
61.82	-0.2637	0.1412	
61.83	-0.2638	0.1410	
61.84	-0.2638	0.1409	
61.85	-0.2638	0.1408	
61.86	-0.2638	0.1406	
61.87	-0.2638	0.1405	
61.88	-0.2638	0.1402	
61.89	-0.2642	0.1397	
61.90	-0.2652	0.1383	
61.91	-0.2662	0.1368	
61.92	-0.2663	0.1359	
61.93	-0.2657	0.1354	
61.94	-0.2652	0.1351	
61.95	-0.2653	0.1344	
61.96	-0.2665	0.1331	
61.97	-0.2679	0.1314	
61.98	-0.2688	0.1305	
61.99	-0.2689	0.1302	
62.00	-0.2688	0.1300	
62.01	-0.2687	0.1296	
62.02	-0.2686	0.1293	
62.03	-0.2686	0.1292	
62.04	-0.2686	0.1291	
62.05	-0.2686	0.1290	
62.06	-0.2686	0.1289	
62.07	-0.2685	0.1288	
62.08	-0.2685	0.1288	
62.09	-0.2685	0.1287	
62.10	-0.2685	0.1286	
62.11	-0.2686	0.1285	
62.12	-0.2686	0.1284	
62.13	-0.2686	0.1283	
62.14	-0.2686	0.1282	
62.15	-0.2686	0.1281	
62.16	-0.2686	0.1280	
62.17	-0.2686	0.1280	
62.18	-0.2686	0.1279	
62.19	-0.2686	0.1279	
62.20	-0.2686	0.1278	
62.21	-0.2686	0.1278	
62.22	-0.2686	0.1277	
62.23	-0.2686	0.1277	
62.24	-0.2686	0.1277	
62.25	-0.2686	0.1276	
62.26	-0.2686	0.1276	
62.27	-0.2686	0.1275	
62.28	-0.2686	0.1275	
62.29	-0.2686	0.1275	
62.30	-0.2686	0.1275	
62.31	-0.2686	0.1275	
62.32	-0.2686	0.1275	
62.33	-0.2686	0.1274	
62.34	-0.2686	0.1274	
62.35	-0.2686	0.1275	
62.36	-0.2686	0.1275	
62.37	-0.2687	0.1274	
62.38	-0.2687	0.1274	
62.39	-0.2687	0.1273	
62.40	-0.2686	0.1273	
62.41	-0.2686	0.1273	
62.42	-0.2686	0.1273	
62.43	-0.2686	0.1273	
62.44	-0.2686	0.1273	
62.45	-0.2686	0.1273	
62.46	-0.2686	0.1273	
62.47	-0.2687	0.1273	
62.48	-0.2686	0.1273	
62.49	-0.2686	0.1273	
62.50	-0.2686	0.1273	
62.51	-0.2686	0.1273	
62.52	-0.2686	0.1273	
62.53	-0.2686	0.1272	
62.54	-0.2686	0.1272	
62.55	-0.2686	0.1272	
62.56	-0.2686	0.1272	
62.57	-0.2686	0.1272	
62.58	-0.2686	0.1272	
62.59	-0.2686	0.1272	
62.60	-0.2686	0.1272	
62.61	-0.2686	0.1272	
62.62	-0.2686	0.1272	
62.63	-0.2686	0.1272	
62.64	-0.2687	0.1271	
62.65	-0.2686	0.1271	
62.66	-0.2686	0.1271	
62.67	-0.2686	0.1271	
62.68	-0.2686	0.1271	
62.69	-0.2686	0.1271	
62.70	-0.2686	0.1271	
62.71	-0.2687	0.1271	
62.72	-0.2687	0.1271	
62.73	-0.2686	0.1271	
62.74	-0.2686	0.1271	
62.75	-0.2687	0.1271	
62.76	-0.2687	0.1271	
62.77	-0.2687	0.1271	
62.78	-0.2687	0.1270	
62.79	-0.2687	0.1270	
62.80	-0.2687	0.1271	
62.81	-0.2687	0.1271	
62.82	-0.2687	0.1271	
62.83	-0.2687	0.1270	
62.84	-0.2687	0.1270	
62.85	-0.2687	0.1270	
62.86	-0.2687	0.1270	
62.87	-0.2687	0.1270	
62.88	-0.2687	0.1270	
62.89	-0.2687	0.1270	
62.90	-0.2687	0.1270	
62.91	-0.2686	0.1269	
62.92	-0.2686	0.1269	
62.93	-0.2686	0.1269	
62.94	-0.2687	0.1269	
62.95	-0.2687	0.1270	
62.96	-0.2687	0.1269	
62.97	-0.2687	0.1269	
62.98	-0.2687	0.1269	
62.99	-0.2687	0.1269	
63.00	-0.2687	0.1269	
63.01	-0.2687	0.1269	
63.02	-0.2687	0.1269	
63.03	-0.2687	0.1269	
63.04	-0.2687	0.1269	
63.05	-0.2687	0.1269	
63.06	-0.2687	0.1269	
63.07	-0.2687	0.1269	
63.08	-0.2687	0.1269	
63.09	-0.2687	0.1269	
63.10	-0.2687	0.1269	
63.11	-0.2687	0.1269	
63.12	-0.2687	0.1269	
63.13	-0.2687	0.1269	
63.14	-0.2687	0.1269	
63.15	-0.2687	0.1269	
63.16	-0.2687	0.1269	
63.17	-0.2687	0.1269	
63.18	-0.2688	0.1269	
63.19	-0.2688	0.1269	
63.20	-0.2687	0.1269	
63.21	-0.2687	0.1269	
63.22	-0.2687	0.1269	
63.23	-0.2687	0.1269	
63.24	-0.2687	0.1268	
63.25	-0.2687	0.1268	
63.26	-0.2687	0.1268	
63.27	-0.2687	0.1268	
63.28	-0.2687	0.1268	
63.29	-0.2687	0.1268	
63.30	-0.2687	0.1268	
63.31	-0.2687	0.1268	
63.32	-0.2687	0.1268	
63.33	-0.2687	0.1268	
63.34	-0.2687	0.1268	
63.35	-0.2687	0.1268	
63.36	-0.2687	0.1268	
63.37	-0.2688	0.1268	
63.38	-0.2688	0.1268	
63.39	-0.2687	0.1268	
63.40	-0.2687	0.1268	
63.41	-0.2688	0.1268	
63.42	-0.2687	0.1268	
63.43	-0.2687	0.1268	
63.44	-0.2688	0.1268	
63.45	-0.2688	0.1267	
63.46	-0.2688	0.1267	
63.47	-0.2688	0.1267	
63.48	-0.2688	0.1267	
63.49	-0.2688	0.1268	
63.50	-0.2688	0.1268	
63.51	-0.2688	0.1267	
63.52	-0.2687	0.1267	
63.53	-0.2687	0.1268	
63.54	-0.2688	0.1267	
63.55	-0.2688	0.1267	
63.56	-0.2688	0.1267	
63.57	-0.2688	0.1267	
63.58	-0.2687	0.1267	
63.59	-0.2688	0.1267	
63.60	-0.2687	0.1267	
63.61	-0.2687	0.1267	
63.62	-0.2687	0.1267	
63.63	-0.2687	0.1267	
63.64	-0.2687	0.1267	
63.65	-0.2688	0.1267	
63.66	-0.2688	0.1267	
63.67	-0.2688	0.1267	
63.68	-0.2688	0.1267	
63.69	-0.2687	0.1267	
63.70	-0.2687	0.1267	
63.71	-0.2688	0.1267	
63.72	-0.2688	0.1267	
63.73	-0.2688	0.1267	
63.74	-0.2688	0.1267	
63.75	-0.2688	0.1267	
63.76	-0.2688	0.1267	
63.77	-0.2688	0.1267	
63.78	-0.2688	0.1267	
63.79	-0.2688	0.1266	
63.80	-0.2688	0.1266	
63.81	-0.2688	0.1266	
63.82	-0.2688	0.1266	
63.83	-0.2688	0.1266	
63.84	-0.2688	0.1266	
63.85	-0.2688	0.1266	
63.86	-0.2688	0.1266	
63.87	-0.2688	0.1266	
63.88	-0.2688	0.1266	
63.89	-0.2688	0.1266	
63.90	-0.2688	0.1266	
63.91	-0.2688	0.1266	
63.92	-0.2688	0.1266	
63.93	-0.2688	0.1266	
63.94	-0.2688	0.1266	
63.95	-0.2688	0.1266	
63.96	-0.2688	0.1266	
63.97	-0.2688	0.1265	
63.98	-0.2688	0.1265	
63.99	-0.2688	0.1265	
64.00	-0.2688	0.1266	
64.01	-0.2688	0.1266	
64.02	-0.2688	0.1266	
64.03	-0.2688	0.1266	
64.04	-0.2688	0.1266	
64.05	-0.2688	0.1266	
64.06	-0.2688	0.1266	
64.07	-0.2688	0.1265	
64.08	-0.2688	0.1265	
64.09	-0.2688	0.1266	
64.10	-0.2688	0.1265	
64.11	-0.2688	0.1265	
64.12	-0.2688	0.1265	
64.13	-0.2688	0.1265	
64.14	-0.2688	0.1265	
64.15	-0.2688	0.1265	
64.16	-0.2688	0.1265	
64.17	-0.2688	0.1265	
64.18	-0.2688	0.1265	
64.19	-0.2688	0.1265	
64.20	-0.2688	0.1265	
64.21	-0.2688	0.1265	
64.22	-0.2688	0.1265	
64.23	-0.2688	0.1265	
64.24	-0.2688	0.1265	
64.25	-0.2688	0.1265	
64.26	-0.2688	0.1265	
64.27	-0.2688	0.1265	
64.28	-0.2688	0.1265	
64.29	-0.2688	0.1265	
64.30	-0.2688	0.1265	
64.31	-0.2688	0.1265	
64.32	-0.2688	0.1265	
64.33	-0.2689	0.1265	
64.34	-0.2689	0.1265	
64.35	-0.2688	0.1265	
64.36	-0.2688	0.1265	
64.37	-0.2688	0.1265	
64.38	-0.2689	0.1265	
64.39	-0.2689	0.1265	
64.40	-0.2689	0.1265	
64.41	-0.2689	0.1264	
64.42	-0.2689	0.1264	
64.43	-0.2689	0.1264	
64.44	-0.2688	0.1264	
64.45	-0.2688	0.1264	
64.46	-0.2689	0.1264	
64.47	-0.2689	0.1264	
64.48	-0.2689	0.1264	
64.49	-0.2688	0.1264	
64.50	-0.2688	0.1264	
64.51	-0.2689	0.1264	
64.52	-0.2689	0.1264	
64.53	-0.2688	0.1264	
64.54	-0.2688	0.1264	
64.55	-0.2688	0.1264	
64.56	-0.2689	0.1264	
64.57	-0.2689	0.1264	
64.58	-0.2689	0.1264	
64.59	-0.2689	0.1264	
64.60	-0.2689	0.1264	
64.61	-0.2689	0.1264	
64.62	-0.2689	0.1264	
64.63	-0.2689	0.1264	
64.64	-0.2688	0.1264	
64.65	-0.2688	0.1264	
64.66	-0.2689	0.1263	
64.67	-0.2689	0.1264	
64.68	-0.2689	0.1264	
64.69	-0.2689	0.1264	
64.70	-0.2689	0.1263	
64.71	-0.2689	0.1263	
64.72	-0.2689	0.1264	
64.73	-0.2689	0.1264	
64.74	-0.2689	0.1264	
64.75	-0.2688	0.1264	
64.76	-0.2688	0.1263	
64.77	-0.2688	0.1263	
64.78	-0.2689	0.1263	
64.79	-0.2689	0.1263	
64.80	-0.2689	0.1263	
64.81	-0.2689	0.1263	
64.82	-0.2689	0.1263	
64.83	-0.2689	0.1263	
64.84	-0.2689	0.1263	
64.85	-0.2689	0.1263	
64.86	-0.2689	0.1263	
64.87	-0.2689	0.1263	
64.88	-0.2689	0.1263	
64.89	-0.2689	0.1263	
64.90	-0.2689	0.1263	
64.91	-0.2689	0.1263	
64.92	-0.2689	0.1263	
64.93	-0.2689	0.1263	
64.94	-0.2689	0.1263	
64.95	-0.2689	0.1263	
64.96	-0.2689	0.1263	
64.97	-0.2688	0.1263	
64.98	-0.2689	0.1263	
64.99	-0.2689	0.1263	
65.00	-0.2689	0.1263	
65.01	-0.2689	0.1263	
65.02	-0.2689	0.1263	
65.03	-0.2689	0.1263	
65.04	-0.2688	0.1263	
65.05	-0.2689	0.1263	
65.06	-0.2689	0.1263	
65.07	-0.2689	0.1263	
65.08	-0.2689	0.1263	
65.09	-0.2689	0.1263	
65.10	-0.2689	0.1263	
65.11	-0.2690	0.1263	
65.12	-0.2689	0.1262	
65.13	-0.2689	0.1262	
65.14	-0.2689	0.1262	
65.15	-0.2689	0.1262	
65.16	-0.2689	0.1263	
65.17	-0.2689	0.1263	
65.18	-0.2689	0.1263	
65.19	-0.2689	0.1263	
65.20	-0.2689	0.1263	
65.21	-0.2689	0.1263	
65.22	-0.2689	0.1263	
65.23	-0.2689	0.1263	
65.24	-0.2689	0.1262	
65.25	-0.2689	0.1262	
65.26	-0.2689	0.1262	
65.27	-0.2689	0.1262	
65.28	-0.2689	0.1262	
65.29	-0.2689	0.1262	
65.30	-0.2689	0.1262	
65.31	-0.2689	0.1262	
65.32	-0.2689	0.1262	
65.33	-0.2689	0.1262	
65.34	-0.2689	0.1262	
65.35	-0.2689	0.1262	
65.36	-0.2689	0.1262	
65.37	-0.2689	0.1262	
65.38	-0.2689	0.1262	
65.39	-0.2689	0.1262	
65.40	-0.2689	0.1262	
65.41	-0.2689	0.1262	
65.42	-0.2689	0.1262	
65.43	-0.2689	0.1262	
65.44	-0.2689	0.1262	
65.45	-0.2689	0.1262	
65.46	-0.2689	0.1262	
65.47	-0.2689	0.1262	
65.48	-0.2689	0.1262	
65.49	-0.2689	0.1262	
65.50	-0.2689	0.1262	
65.51	-0.2689	0.1262	
65.52	-0.2689	0.1262	
65.53	-0.2689	0.1262	
65.54	-0.2689	0.1262	
65.55	-0.2689	0.1262	
65.56	-0.2689	0.1262	
65.57	-0.2689	0.1262	
65.58	-0.2689	0.1262	
65.59	-0.2689	0.1262	
65.60	-0.2690	0.1262	
65.61	-0.2689	0.1261	
65.62	-0.2689	0.1261	
65.63	-0.2689	0.1262	
65.64	-0.2689	0.1262	
65.65	-0.2689	0.1262	
65.66	-0.2689	0.1262	
65.67	-0.2689	0.1262	
65.68	-0.2689	0.1262	
65.69	-0.2689	0.1261	
65.70	-0.2689	0.1261	
65.71	-0.2689	0.1261	
65.72	-0.2689	0.1261	
65.73	-0.2689	0.1261	
65.74	-0.2689	0.1261	
65.75	-0.2689	0.1261	
65.76	-0.2689	0.1261	
65.77	-0.2689	0.1262	
65.78	-0.2689	0.1262	
65.79	-0.2689	0.1262	
65.80	-0.2689	0.1261	
65.81	-0.2689	0.1261	
65.82	-0.2689	0.1261	
65.83	-0.2689	0.1261	
65.84	-0.2689	0.1261	
65.85	-0.2689	0.1261	
65.86	-0.2689	0.1261	
65.87	-0.2689	0.1261	
65.88	-0.2689	0.1261	
65.89	-0.2689	0.1261	
65.90	-0.2689	0.1261	
65.91	-0.2689	0.1261	
65.92	-0.2689	0.1261	
65.93	-0.2689	0.1261	
65.94	-0.2690	0.1261	
65.95	-0.2690	0.1261	
65.96	-0.2690	0.1261	
65.97	-0.2689	0.1261	
65.98	-0.2689	0.1261	
65.99	-0.2689	0.1261	
66.00	-0.2689	0.1261	
66.01	-0.2689	0.1261	
66.02	-0.2689	0.1261	
66.03	-0.2689	0.1261	
66.04	-0.2690	0.1261	
66.05	-0.2690	0.1261	
66.06	-0.2690	0.1261	
66.07	-0.2690	0.1260	
66.08	-0.2690	0.1260	
66.09	-0.2690	0.1261	
66.10	-0.2690	0.1260	
66.11	-0.2690	0.1260	
66.12	-0.2690	0.1261	
66.13	-0.2689	0.1260	
66.14	-0.2689	0.1260	
66.15	-0.2690	0.1260	
66.16	-0.2690	0.1260	
66.17	-0.2690	0.1260	
66.18	-0.2690	0.1261	
66.19	-0.2689	0.1261	
66.20	-0.2689	0.1261	
66.21	-0.2689	0.1261	
66.22	-0.2690	0.1261	
66.23	-0.2690	0.1260	
66.24	-0.2690	0.1260	
66.25	-0.2690	0.1260	
66.26	-0.2690	0.1261	
66.27	-0.2690	0.1261	
66.28	-0.2690	0.1260	
66.29	-0.2690	0.1260	
66.30	-0.2690	0.1260	
66.31	-0.2690	0.1260	
66.32	-0.2689	0.1260	
66.33	-0.2689	0.1260	
66.34	-0.2689	0.1260	
66.35	-0.2689	0.1260	
66.36	-0.2690	0.1260	
66.37	-0.2689	0.1260	
66.38	-0.2690	0.1260	
66.39	-0.2690	0.1260	
66.40	-0.2690	0.1260	
66.41	-0.2690	0.1260	
66.42	-0.2690	0.1260	
66.43	-0.2690	0.1260	
66.44	-0.2690	0.1260	
66.45	-0.2690	0.1260	
66.46	-0.2690	0.1260	
66.47	-0.2690	0.1260	
66.48	-0.2690	0.1260	
66.49	-0.2690	0.1260	
66.50	-0.2690	0.1260	
66.51	-0.2690	0.1260	
66.52	-0.2690	0.1260	
66.53	-0.2690	0.1260	
66.54	-0.2690	0.1260	
66.55	-0.2690	0.1260	
66.56	-0.2690	0.1260	
66.57	-0.2690	0.1260	
66.58	-0.2690	0.1259	
66.59	-0.2690	0.1260	
66.60	-0.2690	0.1260	
66.61	-0.2690	0.1260	
66.62	-0.2690	0.1260	
66.63	-0.2690	0.1260	
66.64	-0.2690	0.1259	
66.65	-0.2690	0.1259	
66.66	-0.2690	0.1260	
66.67	-0.2690	0.1260	
66.68	-0.2690	0.1260	
66.69	-0.2690	0.1260	
66.70	-0.2690	0.1260	
66.71	-0.2690	0.1260	
66.72	-0.2690	0.1260	
66.73	-0.2691	0.1260	
66.74	-0.2690	0.1260	
66.75	-0.2690	0.1260	
66.76	-0.2690	0.1259	
66.77	-0.2690	0.1259	
66.78	-0.2690	0.1260	
66.79	-0.2690	0.1260	
66.80	-0.2690	0.1259	
66.81	-0.2690	0.1259	
66.82	-0.2690	0.1259	
66.83	-0.2690	0.1259	
66.84	-0.2690	0.1259	
66.85	-0.2690	0.1259	
66.86	-0.2691	0.1259	
66.87	-0.2691	0.1259	
66.88	-0.2690	0.1260	
66.89	-0.2690	0.1259	
66.90	-0.2691	0.1259	
66.91	-0.2690	0.1259	
66.92	-0.2690	0.1259	
66.93	-0.2690	0.1259	
66.94	-0.2691	0.1259	
66.95	-0.2691	0.1259	
66.96	-0.2690	0.1259	
66.97	-0.2690	0.1259	
66.98	-0.2690	0.1259	
66.99	-0.2690	0.1259	
67.00	-0.2690	0.1259	
67.01	-0.2690	0.1259	
67.02	-0.2690	0.1259	
67.03	-0.2690	0.1259	
67.04	-0.2690	0.1259	
67.05	-0.2690	0.1259	
67.06	-0.2690	0.1259	
67.07	-0.2690	0.1259	
67.08	-0.2690	0.1259	
67.09	-0.2690	0.1259	
67.10	-0.2690	0.1259	
67.11	-0.2690	0.1259	
67.12	-0.2690	0.1259	
67.13	-0.2690	0.1259	
67.14	-0.2690	0.1259	
67.15	-0.2690	0.1259	
67.16	-0.2690	0.1259	
67.17	-0.2690	0.1259	
67.18	-0.2690	0.1259	
67.19	-0.2690	0.1259	
67.20	-0.2690	0.1259	
67.21	-0.2690	0.1259	
67.22	-0.2690	0.1258	
67.23	-0.2690	0.1259	
67.24	-0.2690	0.1259	
67.25	-0.2690	0.1259	
67.26	-0.2690	0.1259	
67.27	-0.2690	0.1259	
67.28	-0.2690	0.1259	
67.29	-0.2690	0.1259	
67.30	-0.2690	0.1259	
67.31	-0.2690	0.1259	
67.32	-0.2690	0.1259	
67.33	-0.2691	0.1259	
67.34	-0.2691	0.1259	
67.35	-0.2690	0.1259	
67.36	-0.2690	0.1259	
67.37	-0.2690	0.1259	
67.38	-0.2690	0.1259	
67.39	-0.2690	0.1259	
67.40	-0.2690	0.1259	
67.41	-0.2691	0.1259	
67.42	-0.2690	0.1258	
67.43	-0.2690	0.1258	
67.44	-0.2690	0.1258	
67.45	-0.2690	0.1258	
67.46	-0.2690	0.1258	
67.47	-0.2691	0.1258	
67.48	-0.2690	0.1259	
67.49	-0.2690	0.1259	
67.50	-0.2690	0.1259	
67.51	-0.2690	0.1259	
67.52	-0.2690	0.1259	
67.53	-0.2690	0.1259	
67.54	-0.2690	0.1258	
67.55	-0.2690	0.1258	
67.56	-0.2690	0.1258	
67.57	-0.2690	0.1259	
67.58	-0.2690	0.1258	
67.59	-0.2690	0.1258	
67.60	-0.2690	0.1258	
67.61	-0.2691	0.1258	
67.62	-0.2690	0.1258	
67.63	-0.2690	0.1258	
67.64	-0.2690	0.1258	
67.65	-0.2690	0.1258	
67.66	-0.2690	0.1258	
67.67	-0.2690	0.1258	
67.68	-0.2690	0.1258	
67.69	-0.2690	0.1259	
67.70	-0.2690	0.1258	
67.71	-0.2690	0.1258	
67.72	-0.2691	0.1258	
67.73	-0.2690	0.1258	
67.74	-0.2690	0.1258	
67.75	-0.2690	0.1258	
67.76	-0.2690	0.1258	
67.77	-0.2690	0.1258	
67.78	-0.2690	0.1258	
67.79	-0.2690	0.1258	
67.80	-0.2690	0.1258	
67.81	-0.2690	0.1258	
67.82	-0.2690	0.1258	
67.83	-0.2691	0.1258	
67.84	-0.2691	0.1258	
67.85	-0.2690	0.1258	
67.86	-0.2690	0.1258	
67.87	-0.2690	0.1258	
67.88	-0.2690	0.1258	
67.89	-0.2690	0.1258	
67.90	-0.2690	0.1258	
67.91	-0.2690	0.1258	
67.92	-0.2690	0.1258	
67.93	-0.2690	0.1258	
67.94	-0.2690	0.1258	
67.95	-0.2690	0.1258	
67.96	-0.2691	0.1258	
67.97	-0.2691	0.1258	
67.98	-0.2691	0.1258	
67.99	-0.2691	0.1258	
68.00	-0.2691	0.1258	
68.01	-0.2691	0.1258	
68.02	-0.2691	0.1258	
68.03	-0.2690	0.1258	
68.04	-0.2690	0.1258	
68.05	-0.2690	0.1258	
68.06	-0.2691	0.1258	
68.07	-0.2691	0.1258	
68.08	-0.2691	0.1258	
68.09	-0.2690	0.1258	
68.10	-0.2690	0.1258	
68.11	-0.2690	0.1258	
68.12	-0.2690	0.1258	
68.13	-0.2690	0.1258	
68.14	-0.2690	0.1258	
68.15	-0.2690	0.1258	
68.16	-0.2690	0.1258	
68.17	-0.2690	0.1258	
68.18	-0.2690	0.1258	
68.19	-0.2690	0.1258	
68.20	-0.2690	0.1258	
68.21	-0.2690	0.1258	
68.22	-0.2690	0.1258	
68.23	-0.2690	0.1258	
68.24	-0.2691	0.1258	
68.25	-0.2691	0.1258	
68.26	-0.2691	0.1258	
68.27	-0.2690	0.1258	
68.28	-0.2690	0.1258	
68.29	-0.2690	0.1258	
68.30	-0.2690	0.1258	
68.31	-0.2690	0.1258	
68.32	-0.2690	0.1258	
68.33	-0.2690	0.1258	
68.34	-0.2690	0.1258	
68.35	-0.2690	0.1258	
68.36	-0.2691	0.1258	
68.37	-0.2691	0.1258	
68.38	-0.2691	0.1258	
68.39	-0.2690	0.1258	
68.40	-0.2690	0.1258	
68.41	-0.2690	0.1257	
68.42	-0.2690	0.1257	
68.43	-0.2691	0.1257	
68.44	-0.2690	0.1258	
68.45	-0.2690	0.1258	
68.46	-0.2690	0.1258	
68.47	-0.2690	0.1257	
68.48	-0.2690	0.1257	
68.49	-0.2690	0.1257	
68.50	-0.2690	0.1258	
68.51	-0.2690	0.1258	
68.52	-0.2690	0.1258	
68.53	-0.2690	0.1257	
68.54	-0.2690	0.1257	
68.55	-0.2690	0.1257	
68.56	-0.2690	0.1258	
68.57	-0.2690	0.1258	
68.58	-0.2690	0.1258	
68.59	-0.2691	0.1258	
68.60	-0.2691	0.1258	
68.61	-0.2690	0.1258	
68.62	-0.2690	0.1258	
68.63	-0.2690	0.1257	
68.64	-0.2691	0.1257	
68.65	-0.2691	0.1257	
68.66	-0.2691	0.1257	
68.67	-0.2691	0.1257	
68.68	-0.2691	0.1257	
68.69	-0.2691	0.1257	
68.70	-0.2690	0.1257	
68.71	-0.2690	0.1257	
68.72	-0.2691	0.1258	
68.73	-0.2691	0.1257	
68.74	-0.2691	0.1257	
68.75	-0.2690	0.1257	
68.76	-0.2690	0.1257	
68.77	-0.2690	0.1257	
68.78	-0.2690	0.1258	
68.79	-0.2690	0.1258	
68.80	-0.2691	0.1257	
68.81	-0.2691	0.1257	
68.82	-0.2691	0.1257	
68.83	-0.2691	0.1257	
68.84	-0.2690	0.1257	
68.85	-0.2690	0.1257	
68.86	-0.2690	0.1257	
68.87	-0.2691	0.1257	
68.88	-0.2690	0.1257	
68.89	-0.2690	0.1257	
68.90	-0.2690	0.1257	
68.91	-0.2690	0.1257	
68.92	-0.2690	0.1257	
68.93	-0.2690	0.1258	
68.94	-0.2690	0.1258	
68.95	-0.2690	0.1257	
68.96	-0.2690	0.1257	
68.97	-0.2690	0.1257	
68.98	-0.2690	0.1257	
68.99	-0.2690	0.1257	
69.00	-0.2690	0.1257	
69.01	-0.2691	0.1257	
69.02	-0.2691	0.1257	
69.03	-0.2691	0.1257	
69.04	-0.2691	0.1257	
69.05	-0.2691	0.1257	
69.06	-0.2691	0.1257	
69.07	-0.2691	0.1257	
69.08	-0.2691	0.1257	
69.09	-0.2691	0.1257	
69.10	-0.2691	0.1257	
69.11	-0.2690	0.1257	
69.12	-0.2690	0.1257	
69.13	-0.2691	0.1257	
69.14	-0.2691	0.1256	
69.15	-0.2691	0.1257	
69.16	-0.2691	0.1257	
69.17	-0.2691	0.1257	
69.18	-0.2690	0.1257	
69.19	-0.2691	0.1257	
69.20	-0.2691	0.1257	
69.21	-0.2691	0.1257	
69.22	-0.2691	0.1257	
69.23	-0.2691	0.1257	
69.24	-0.2691	0.1257	
69.25	-0.2691	0.1257	
69.26	-0.2691	0.1256	
69.27	-0.2691	0.1256	
69.28	-0.2690	0.1256	
69.29	-0.2690	0.1256	
69.30	-0.2691	0.1256	
69.31	-0.2691	0.1256	
69.32	-0.2691	0.1257	
69.33	-0.2691	0.1257	
69.34	-0.2691	0.1256	
69.35	-0.2691	0.1256	
69.36	-0.2691	0.1256	
69.37	-0.2691	0.1256	
69.38	-0.2691	0.1256	
69.39	-0.2691	0.1257	
69.40	-0.2691	0.1257	
69.41	-0.2691	0.1257	
69.42	-0.2691	0.1257	
69.43	-0.2691	0.1257	
69.44	-0.2691	0.1257	
69.45	-0.2691	0.1257	
69.46	-0.2691	0.1257	
69.47	-0.2691	0.1257	
69.48	-0.2690	0.1257	
69.49	-0.2690	0.1257	
69.50	-0.2691	0.1257	
69.51	-0.2691	0.1257	
69.52	-0.2691	0.1257	
69.53	-0.2691	0.1257	
69.54	-0.2691	0.1257	
69.55	-0.2690	0.1257	
69.56	-0.2690	0.1256	
69.57	-0.2690	0.1257	
69.58	-0.2691	0.1257	
69.59	-0.2691	0.1257	
69.60	-0.2691	0.1257	
69.61	-0.2691	0.1256	
69.62	-0.2691	0.1256	
69.63	-0.2691	0.1256	
69.64	-0.2690	0.1256	
69.65	-0.2690	0.1256	
69.66	-0.2691	0.1257	
69.67	-0.2691	0.1257	
69.68	-0.2691	0.1256	
69.69	-0.2691	0.1256	
69.70	-0.2691	0.1256	
69.71	-0.2691	0.1256	
69.72	-0.2691	0.1256	
69.73	-0.2691	0.1256	
69.74	-0.2691	0.1256	
69.75	-0.2691	0.1256	
69.76	-0.2691	0.1256	
69.77	-0.2691	0.1257	
69.78	-0.2691	0.1257	
69.79	-0.2690	0.1257	
69.80	-0.2690	0.1256	
69.81	-0.2691	0.1256	
69.82	-0.2691	0.1256	
69.83	-0.2691	0.1256	
69.84	-0.2691	0.1256	
69.85	-0.2691	0.1256	
69.86	-0.2691	0.1256	
69.87	-0.2691	0.1256	
69.88	-0.2691	0.1257	
69.89	-0.2690	0.1256	
69.90	-0.2690	0.1256	
69.91	-0.2690	0.1256	
69.92	-0.2691	0.1256	
69.93	-0.2691	0.1256	
69.94	-0.2691	0.1257	
69.95	-0.2691	0.1256	
69.96	-0.2691	0.1256	
69.97	-0.2691	0.1257	
69.98	-0.2691	0.1257	
69.99	-0.2691	0.1256	
70.00	-0.2691	0.1255	
70.01	-0.2691	0.1255	
70.02	-0.2691	0.1256	
70.03	-0.2691	0.1256	
70.04	-0.2691	0.1256	
70.05	-0.2691	0.1256	
70.06	-0.2691	0.1256	
70.07	-0.2691	0.1256	
70.08	-0.2691	0.1257	
70.09	-0.2691	0.1256	
70.10	-0.2691	0.1256	
70.11	-0.2691	0.1256	
70.12	-0.2691	0.1256	
70.13	-0.2691	0.1256	
70.14	-0.2691	0.1256	
70.15	-0.2690	0.1256	
70.16	-0.2690	0.1256	
70.17	-0.2691	0.1256	
70.18	-0.2691	0.1256	
70.19	-0.2691	0.1256	
70.20	-0.2691	0.1256	